TITLE	12_7
DATA TYPE	ULTRAVIOLET SPECTRUM
ORIGIN	JASCO
OWNER	
DATE	21/05/05
TIME	17:32:36
SPECTROMETER/DATA SYSTEM	
RESOLUTION	
DELTAX	-0.1
XUNITS	NANOMETERS
YUNITS	TRANSMITTANCE
FIRSTX	  850.0000
LASTX	  300.0000
NPOINTS	    5501
FIRSTY	    83.09200
MAXY	    85.22060
MINY	     0.13344
XYDATA
850.0000	83.092
849.9000	83.1079
849.8000	82.9964
849.7000	82.9601
849.6000	83.1335
849.5000	83.1904
849.4000	83.4375
849.3000	83.406
849.2000	83.5426
849.1000	83.5109
849.0000	83.5787
848.9000	83.7775
848.8000	83.8761
848.7000	83.7488
848.6000	83.7726
848.5000	84.0442
848.4000	84.2198
848.3000	84.3395
848.2000	84.5781
848.1000	84.7311
848.0000	84.7564
847.9000	84.8404
847.8000	84.7775
847.7000	84.6815
847.6000	84.7331
847.5000	84.7373
847.4000	84.7827
847.3000	84.9866
847.2000	85.0568
847.1000	85.2206
847.0000	85.1095
846.9000	84.7981
846.8000	84.8736
846.7000	84.9305
846.6000	84.852
846.5000	84.8693
846.4000	84.7205
846.3000	84.7223
846.2000	84.6322
846.1000	84.8098
846.0000	84.5662
845.9000	84.5004
845.8000	84.4891
845.7000	84.2132
845.6000	84.0767
845.5000	83.9144
845.4000	83.9022
845.3000	83.9488
845.2000	83.8753
845.1000	83.69
845.0000	83.5405
844.9000	83.3415
844.8000	83.4381
844.7000	83.1977
844.6000	83.1989
844.5000	83.0719
844.4000	83.1525
844.3000	83.0735
844.2000	82.9856
844.1000	82.8269
844.0000	82.8525
843.9000	82.7893
843.8000	82.8687
843.7000	82.6835
843.6000	82.4719
843.5000	82.5078
843.4000	82.3991
843.3000	82.447
843.2000	82.16
843.1000	82.1228
843.0000	81.9052
842.9000	81.8016
842.8000	81.4902
842.7000	81.2602
842.6000	81.1012
842.5000	81.2153
842.4000	81.0099
842.3000	80.9271
842.2000	80.5818
842.1000	80.4461
842.0000	80.2315
841.9000	80.0274
841.8000	79.9718
841.7000	79.644
841.6000	79.4563
841.5000	79.2507
841.4000	79.2441
841.3000	79.1406
841.2000	79.143
841.1000	79.2139
841.0000	79.078
840.9000	78.6178
840.8000	78.2801
840.7000	77.9477
840.6000	77.7868
840.5000	77.6186
840.4000	77.4863
840.3000	77.3303
840.2000	76.965
840.1000	76.9482
840.0000	76.7487
839.9000	76.7711
839.8000	76.5964
839.7000	76.4069
839.6000	76.2136
839.5000	75.9922
839.4000	75.9948
839.3000	76.0112
839.2000	76.1352
839.1000	76.1506
839.0000	76.1452
838.9000	76.0573
838.8000	76.0257
838.7000	75.9071
838.6000	75.9858
838.5000	75.7053
838.4000	75.7807
838.3000	75.5558
838.2000	75.3447
838.1000	75.2126
838.0000	75.201
837.9000	75.2496
837.8000	74.9508
837.7000	74.8392
837.6000	74.7321
837.5000	74.6392
837.4000	74.4644
837.3000	74.2125
837.2000	74.081
837.1000	74.1016
837.0000	73.9553
836.9000	73.7685
836.8000	73.7125
836.7000	73.5888
836.6000	73.6053
836.5000	73.4961
836.4000	73.4054
836.3000	73.2305
836.2000	73.3806
836.1000	73.3414
836.0000	73.2472
835.9000	73.1169
835.8000	73.1553
835.7000	73.3291
835.6000	73.2516
835.5000	73.2186
835.4000	73.242
835.3000	73.358
835.2000	73.2393
835.1000	73.3748
835.0000	73.3064
834.9000	73.3783
834.8000	73.2898
834.7000	73.3716
834.6000	73.2758
834.5000	73.1472
834.4000	73.1285
834.3000	73.1917
834.2000	73.1512
834.1000	73.1418
834.0000	73.1703
833.9000	73.0912
833.8000	73.0766
833.7000	73.2447
833.6000	73.2067
833.5000	73.1302
833.4000	73.1845
833.3000	73.2873
833.2000	73.3487
833.1000	73.3739
833.0000	73.6102
832.9000	73.7545
832.8000	73.8091
832.7000	73.8626
832.6000	73.964
832.5000	74.1043
832.4000	74.2508
832.3000	74.2848
832.2000	74.4014
832.1000	74.3029
832.0000	74.5219
831.9000	74.68
831.8000	74.7408
831.7000	74.7478
831.6000	74.8806
831.5000	74.9237
831.4000	74.849
831.3000	75.0787
831.2000	75.3811
831.1000	75.4576
831.0000	75.5535
830.9000	75.6163
830.8000	75.6961
830.7000	75.8069
830.6000	75.8664
830.5000	76.1274
830.4000	76.2905
830.3000	76.4544
830.2000	76.4637
830.1000	76.7141
830.0000	76.8349
829.9000	76.9852
829.8000	77.0291
829.7000	77.124
829.6000	77.1561
829.5000	77.3605
829.4000	77.5192
829.3000	77.6308
829.2000	77.7848
829.1000	78.0409
829.0000	78.2473
828.9000	78.3953
828.8000	78.4478
828.7000	78.4866
828.6000	78.7714
828.5000	78.8291
828.4000	78.9619
828.3000	79.0188
828.2000	79.2878
828.1000	79.2774
828.0000	79.3405
827.9000	79.488
827.8000	79.6229
827.7000	79.7099
827.6000	79.7928
827.5000	79.8218
827.4000	79.8467
827.3000	79.9372
827.2000	80.113
827.1000	80.2514
827.0000	80.485
826.9000	80.6221
826.8000	80.8139
826.7000	80.94
826.6000	81.0907
826.5000	81.3146
826.4000	81.5549
826.3000	81.5858
826.2000	81.6008
826.1000	81.7273
826.0000	81.8042
825.9000	81.8907
825.8000	82.065
825.7000	82.2411
825.6000	82.4782
825.5000	82.6262
825.4000	82.5883
825.3000	82.8031
825.2000	82.8894
825.1000	83.0199
825.0000	83.041
824.9000	83.2031
824.8000	83.2742
824.7000	83.4113
824.6000	83.4573
824.5000	83.5416
824.4000	83.8476
824.3000	83.9762
824.2000	84.0102
824.1000	83.9522
824.0000	83.9622
823.9000	84.0112
823.8000	84.1021
823.7000	83.9823
823.6000	84.0808
823.5000	84.1846
823.4000	84.202
823.3000	84.2396
823.2000	84.0257
823.1000	84.232
823.0000	84.3644
822.9000	84.5382
822.8000	84.3554
822.7000	84.4516
822.6000	84.5354
822.5000	84.6959
822.4000	84.6443
822.3000	84.4902
822.2000	84.5935
822.1000	84.586
822.0000	84.5393
821.9000	84.4648
821.8000	84.542
821.7000	84.4189
821.6000	84.4696
821.5000	84.1813
821.4000	84.1434
821.3000	84.0459
821.2000	84.0729
821.1000	84.0185
821.0000	83.9228
820.9000	83.8135
820.8000	83.7374
820.7000	83.8407
820.6000	83.6315
820.5000	83.5859
820.4000	83.562
820.3000	83.491
820.2000	83.335
820.1000	83.2901
820.0000	83.3397
819.9000	83.2289
819.8000	83.2403
819.7000	83.1406
819.6000	83.0195
819.5000	82.826
819.4000	82.7337
819.3000	82.5865
819.2000	82.431
819.1000	82.2374
819.0000	82.2589
818.9000	82.0453
818.8000	81.854
818.7000	81.7109
818.6000	81.6008
818.5000	81.4844
818.4000	81.3315
818.3000	81.4174
818.2000	81.1752
818.1000	80.976
818.0000	80.9035
817.9000	80.7362
817.8000	80.5854
817.7000	80.4701
817.6000	80.3895
817.5000	80.1953
817.4000	79.9092
817.3000	79.8765
817.2000	79.7356
817.1000	79.6006
817.0000	79.3479
816.9000	79.0969
816.8000	78.9265
816.7000	78.6735
816.6000	78.4173
816.5000	78.1858
816.4000	77.9477
816.3000	77.8863
816.2000	77.8064
816.1000	77.7642
816.0000	77.5696
815.9000	77.4898
815.8000	77.34
815.7000	77.0909
815.6000	76.8518
815.5000	76.7019
815.4000	76.4371
815.3000	76.3919
815.2000	76.2751
815.1000	76.0676
815.0000	76.0411
814.9000	76.0565
814.8000	75.8899
814.7000	75.6759
814.6000	75.4932
814.5000	75.3673
814.4000	75.3487
814.3000	75.2055
814.2000	75.1635
814.1000	75.1157
814.0000	74.9694
813.9000	74.8683
813.8000	74.9837
813.7000	74.8169
813.6000	74.6967
813.5000	74.6754
813.4000	74.6249
813.3000	74.4315
813.2000	74.4216
813.1000	74.3593
813.0000	74.1776
812.9000	74.025
812.8000	73.8406
812.7000	73.7718
812.6000	73.6539
812.5000	73.616
812.4000	73.5422
812.3000	73.483
812.2000	73.3175
812.1000	73.1779
812.0000	73.0633
811.9000	72.9527
811.8000	72.9311
811.7000	72.9065
811.6000	72.8072
811.5000	72.6987
811.4000	72.7735
811.3000	72.6475
811.2000	72.699
811.1000	72.8389
811.0000	72.9279
810.9000	72.9248
810.8000	73.0957
810.7000	73.0771
810.6000	73.1677
810.5000	73.2608
810.4000	73.3306
810.3000	73.4593
810.2000	73.3543
810.1000	73.4151
810.0000	73.4568
809.9000	73.6904
809.8000	73.7206
809.7000	73.7844
809.6000	73.7698
809.5000	73.7193
809.4000	73.6837
809.3000	73.6429
809.2000	73.6405
809.1000	73.7311
809.0000	73.7498
808.9000	73.8217
808.8000	73.868
808.7000	73.9735
808.6000	74.1015
808.5000	74.1986
808.4000	74.2516
808.3000	74.2503
808.2000	74.3393
808.1000	74.4875
808.0000	74.5693
807.9000	74.6353
807.8000	74.6868
807.7000	74.8285
807.6000	74.9867
807.5000	75.0631
807.4000	75.1392
807.3000	75.3499
807.2000	75.5675
807.1000	75.5159
807.0000	75.616
806.9000	75.8086
806.8000	75.9685
806.7000	75.9611
806.6000	76.098
806.5000	76.1894
806.4000	76.2673
806.3000	76.4604
806.2000	76.5983
806.1000	76.7614
806.0000	76.8808
805.9000	77.1644
805.8000	77.3124
805.7000	77.4808
805.6000	77.5173
805.5000	77.7766
805.4000	77.905
805.3000	77.9485
805.2000	78.0723
805.1000	78.2858
805.0000	78.5379
804.9000	78.755
804.8000	79.0432
804.7000	79.2225
804.6000	79.441
804.5000	79.6635
804.4000	79.735
804.3000	79.7
804.2000	79.931
804.1000	80.0433
804.0000	80.2327
803.9000	80.3999
803.8000	80.6706
803.7000	80.9069
803.6000	81.1753
803.5000	81.396
803.4000	81.5619
803.3000	81.6465
803.2000	81.6775
803.1000	81.7293
803.0000	81.9625
802.9000	81.9541
802.8000	82.0746
802.7000	82.1839
802.6000	82.3317
802.5000	82.5293
802.4000	82.6291
802.3000	82.8254
802.2000	82.8138
802.1000	82.8901
802.0000	82.9879
801.9000	83.1478
801.8000	83.1083
801.7000	83.3162
801.6000	83.4919
801.5000	83.6427
801.4000	83.5771
801.3000	83.7314
801.2000	83.7861
801.1000	83.9946
801.0000	84.0659
800.9000	83.9028
800.8000	83.9024
800.7000	83.8951
800.6000	84.071
800.5000	84.0508
800.4000	84.027
800.3000	84.0944
800.2000	84.1349
800.1000	84.2149
800.0000	84.2174
799.9000	84.2675
799.8000	84.2556
799.7000	84.1985
799.6000	84.1879
799.5000	84.0186
799.4000	84.0577
799.3000	84.2455
799.2000	84.2834
799.1000	84.3066
799.0000	84.2223
798.9000	84.2673
798.8000	84.2141
798.7000	84.2591
798.6000	84.1398
798.5000	84.0431
798.4000	84.0559
798.3000	84.0373
798.2000	84.1028
798.1000	84.177
798.0000	84.149
797.9000	84.1639
797.8000	83.986
797.7000	83.8467
797.6000	83.8172
797.5000	83.5784
797.4000	83.4187
797.3000	83.2507
797.2000	83.1474
797.1000	82.8829
797.0000	82.806
796.9000	82.594
796.8000	82.4682
796.7000	82.2565
796.6000	82.0809
796.5000	82.0125
796.4000	81.9639
796.3000	81.9021
796.2000	81.8001
796.1000	81.623
796.0000	81.5026
795.9000	81.4986
795.8000	81.4417
795.7000	81.3063
795.6000	81.2214
795.5000	81.0206
795.4000	80.8756
795.3000	80.7294
795.2000	80.5514
795.1000	80.3848
795.0000	80.2175
794.9000	80.0554
794.8000	79.9199
794.7000	79.7942
794.6000	79.6822
794.5000	79.5554
794.4000	79.393
794.3000	79.1303
794.2000	78.9161
794.1000	78.7767
794.0000	78.5978
793.9000	78.5497
793.8000	78.5387
793.7000	78.4224
793.6000	78.3051
793.5000	78.2106
793.4000	78.0294
793.3000	77.8223
793.2000	77.583
793.1000	77.3104
793.0000	77.0991
792.9000	76.9193
792.8000	76.6157
792.7000	76.474
792.6000	76.2694
792.5000	76.0897
792.4000	75.8725
792.3000	75.7092
792.2000	75.4669
792.1000	75.3885
792.0000	75.2531
791.9000	75.0302
791.8000	74.913
791.7000	74.7969
791.6000	74.7072
791.5000	74.7098
791.4000	74.6418
791.3000	74.5833
791.2000	74.5775
791.1000	74.4333
791.0000	74.4465
790.9000	74.3468
790.8000	74.2661
790.7000	74.2543
790.6000	74.0517
790.5000	73.9305
790.4000	73.8046
790.3000	73.8474
790.2000	73.7494
790.1000	73.5682
790.0000	73.479
789.9000	73.312
789.8000	73.2077
789.7000	73.126
789.6000	73.0808
789.5000	73.0484
789.4000	73.0389
789.3000	73.0132
789.2000	72.9728
789.1000	72.7824
789.0000	72.8694
788.9000	72.7458
788.8000	72.653
788.7000	72.4891
788.6000	72.5218
788.5000	72.5535
788.4000	72.635
788.3000	72.7924
788.2000	72.8049
788.1000	72.6985
788.0000	72.7061
787.9000	72.8379
787.8000	72.8042
787.7000	72.8376
787.6000	72.9569
787.5000	73.0915
787.4000	73.1766
787.3000	73.256
787.2000	73.3142
787.1000	73.4877
787.0000	73.5926
786.9000	73.6873
786.8000	73.6795
786.7000	73.6778
786.6000	73.745
786.5000	73.9113
786.4000	74.0182
786.3000	74.071
786.2000	74.2558
786.1000	74.348
786.0000	74.3686
785.9000	74.4381
785.8000	74.5683
785.7000	74.7119
785.6000	74.888
785.5000	74.925
785.4000	75.0795
785.3000	75.2217
785.2000	75.3632
785.1000	75.5391
785.0000	75.6808
784.9000	75.9013
784.8000	76.0177
784.7000	76.0223
784.6000	76.0622
784.5000	76.2347
784.4000	76.4026
784.3000	76.5807
784.2000	76.7026
784.1000	76.7825
784.0000	76.9648
783.9000	77.1287
783.8000	77.238
783.7000	77.3543
783.6000	77.5297
783.5000	77.6316
783.4000	77.7844
783.3000	77.991
783.2000	78.1836
783.1000	78.4509
783.0000	78.6996
782.9000	78.8449
782.8000	79.0744
782.7000	79.1941
782.6000	79.3216
782.5000	79.5469
782.4000	79.6959
782.3000	79.9004
782.2000	80.0237
782.1000	80.2187
782.0000	80.4104
781.9000	80.5314
781.8000	80.7333
781.7000	80.7463
781.6000	80.8434
781.5000	80.8748
781.4000	80.9628
781.3000	81.1546
781.2000	81.3069
781.1000	81.4693
781.0000	81.608
780.9000	81.7968
780.8000	81.9576
780.7000	82.0776
780.6000	82.2523
780.5000	82.4463
780.4000	82.5373
780.3000	82.6534
780.2000	82.7014
780.1000	82.84
780.0000	82.9612
779.9000	83.1788
779.8000	83.2342
779.7000	83.2638
779.6000	83.263
779.5000	83.3905
779.4000	83.4687
779.3000	83.4938
779.2000	83.5392
779.1000	83.6986
779.0000	83.8361
778.9000	83.7781
778.8000	83.8244
778.7000	83.9684
778.6000	84.0591
778.5000	84.1673
778.4000	84.2806
778.3000	84.2634
778.2000	84.3162
778.1000	84.5128
778.0000	84.5647
777.9000	84.5033
777.8000	84.5078
777.7000	84.5568
777.6000	84.5381
777.5000	84.4748
777.4000	84.3713
777.3000	84.4096
777.2000	84.3588
777.1000	84.1938
777.0000	84.1398
776.9000	83.9962
776.8000	83.8194
776.7000	83.8134
776.6000	83.7151
776.5000	83.5253
776.4000	83.3987
776.3000	83.3411
776.2000	83.2687
776.1000	83.1218
776.0000	83.0074
775.9000	82.8937
775.8000	82.7373
775.7000	82.636
775.6000	82.6387
775.5000	82.6148
775.4000	82.4755
775.3000	82.3449
775.2000	82.2957
775.1000	82.2072
775.0000	82.0459
774.9000	81.8621
774.8000	81.7517
774.7000	81.6316
774.6000	81.4994
774.5000	81.3831
774.4000	81.2501
774.3000	80.9803
774.2000	80.9257
774.1000	80.6633
774.0000	80.42
773.9000	80.2048
773.8000	80.0738
773.7000	79.9503
773.6000	79.8131
773.5000	79.6693
773.4000	79.6281
773.3000	79.552
773.2000	79.4225
773.1000	79.1986
773.0000	79.0198
772.9000	78.7896
772.8000	78.5656
772.7000	78.4499
772.6000	78.2332
772.5000	78.1615
772.4000	77.892
772.3000	77.7306
772.2000	77.5105
772.1000	77.3337
772.0000	77.0594
771.9000	76.9062
771.8000	76.703
771.7000	76.5609
771.6000	76.3639
771.5000	76.2207
771.4000	76.1031
771.3000	76.0829
771.2000	75.969
771.1000	75.7966
771.0000	75.6295
770.9000	75.4313
770.8000	75.455
770.7000	75.292
770.6000	75.1715
770.5000	75.0402
770.4000	74.9415
770.3000	74.8118
770.2000	74.6154
770.1000	74.4605
770.0000	74.371
769.9000	74.2538
769.8000	74.1306
769.7000	73.8672
769.6000	73.7627
769.5000	73.6556
769.4000	73.6157
769.3000	73.4534
769.2000	73.2491
769.1000	73.1775
769.0000	73.1963
768.9000	73.0741
768.8000	72.9714
768.7000	72.8172
768.6000	72.7829
768.5000	72.7039
768.4000	72.6506
768.3000	72.5969
768.2000	72.4609
768.1000	72.4967
768.0000	72.4941
767.9000	72.5088
767.8000	72.407
767.7000	72.487
767.6000	72.4737
767.5000	72.4813
767.4000	72.4393
767.3000	72.5122
767.2000	72.5977
767.1000	72.5752
767.0000	72.5474
766.9000	72.5395
766.8000	72.5487
766.7000	72.5981
766.6000	72.7282
766.5000	72.684
766.4000	72.6707
766.3000	72.7667
766.2000	72.8364
766.1000	72.8715
766.0000	72.9662
765.9000	73.1027
765.8000	73.1517
765.7000	73.1486
765.6000	73.1862
765.5000	73.3514
765.4000	73.498
765.3000	73.6406
765.2000	73.7786
765.1000	73.8967
765.0000	73.9691
764.9000	74.1759
764.8000	74.4007
764.7000	74.4959
764.6000	74.5847
764.5000	74.7381
764.4000	74.8693
764.3000	75.0006
764.2000	75.1367
764.1000	75.315
764.0000	75.4565
763.9000	75.5102
763.8000	75.6302
763.7000	75.7374
763.6000	75.8211
763.5000	75.9386
763.4000	76.0212
763.3000	76.1759
763.2000	76.3226
763.1000	76.4426
763.0000	76.6317
762.9000	76.8167
762.8000	76.9821
762.7000	77.1079
762.6000	77.2516
762.5000	77.486
762.4000	77.6812
762.3000	77.9427
762.2000	78.1539
762.1000	78.3387
762.0000	78.6108
761.9000	78.7723
761.8000	79.0747
761.7000	79.2109
761.6000	79.3498
761.5000	79.5111
761.4000	79.7371
761.3000	79.8372
761.2000	79.9984
761.1000	80.1325
761.0000	80.3341
760.9000	80.4502
760.8000	80.6035
760.7000	80.6722
760.6000	80.8598
760.5000	81.0337
760.4000	81.1136
760.3000	81.3115
760.2000	81.4526
760.1000	81.6085
760.0000	81.7726
759.9000	82.0147
759.8000	82.0832
759.7000	82.3316
759.6000	82.474
759.5000	82.5194
759.4000	82.6913
759.3000	82.8409
759.2000	82.9627
759.1000	83.1688
759.0000	83.2122
758.9000	83.2221
758.8000	83.3018
758.7000	83.3101
758.6000	83.4214
758.5000	83.515
758.4000	83.5089
758.3000	83.453
758.2000	83.573
758.1000	83.6239
758.0000	83.6906
757.9000	83.8794
757.8000	83.8773
757.7000	83.8807
757.6000	83.8706
757.5000	83.8848
757.4000	83.8664
757.3000	83.921
757.2000	83.9665
757.1000	84.1187
757.0000	84.06
756.9000	84.1114
756.8000	84.0341
756.7000	84.0562
756.6000	83.989
756.5000	83.8751
756.4000	83.8422
756.3000	83.7233
756.2000	83.6454
756.1000	83.6794
756.0000	83.6434
755.9000	83.541
755.8000	83.4965
755.7000	83.4029
755.6000	83.2889
755.5000	83.066
755.4000	82.9389
755.3000	82.7297
755.2000	82.6564
755.1000	82.453
755.0000	82.3728
754.9000	82.2417
754.8000	82.0259
754.7000	81.8658
754.6000	81.6822
754.5000	81.4812
754.4000	81.3617
754.3000	81.1359
754.2000	80.9716
754.1000	80.8809
754.0000	80.6922
753.9000	80.5272
753.8000	80.3532
753.7000	80.2138
753.6000	80.1036
753.5000	80.1423
753.4000	79.8673
753.3000	79.6256
753.2000	79.4932
753.1000	79.3139
753.0000	79.1841
752.9000	78.9514
752.8000	78.7118
752.7000	78.5229
752.6000	78.306
752.5000	78.0747
752.4000	77.9099
752.3000	77.71
752.2000	77.5463
752.1000	77.3316
752.0000	77.1221
751.9000	76.793
751.8000	76.6678
751.7000	76.5573
751.6000	76.374
751.5000	76.1653
751.4000	75.9929
751.3000	75.8334
751.2000	75.708
751.1000	75.6379
751.0000	75.5108
750.9000	75.2966
750.8000	75.078
750.7000	75.0478
750.6000	74.854
750.5000	74.8243
750.4000	74.7191
750.3000	74.5375
750.2000	74.4318
750.1000	74.2215
750.0000	74.0365
749.9000	73.8505
749.8000	73.6699
749.7000	73.5271
749.6000	73.3078
749.5000	73.174
749.4000	73.0655
749.3000	73.0019
749.2000	72.9288
749.1000	72.7289
749.0000	72.6183
748.9000	72.4375
748.8000	72.2898
748.7000	72.2714
748.6000	72.1645
748.5000	72.1205
748.4000	72.0733
748.3000	72.1097
748.2000	72.1028
748.1000	72.0526
748.0000	72.0569
747.9000	72.0101
747.8000	71.9883
747.7000	71.9819
747.6000	71.9528
747.5000	71.9821
747.4000	72.0197
747.3000	72.0322
747.2000	72.0829
747.1000	72.0172
747.0000	72.0472
746.9000	72.0955
746.8000	72.2224
746.7000	72.2257
746.6000	72.2367
746.5000	72.3352
746.4000	72.3967
746.3000	72.4883
746.2000	72.5423
746.1000	72.6122
746.0000	72.7085
745.9000	72.6931
745.8000	72.752
745.7000	72.8103
745.6000	72.8694
745.5000	73.0563
745.4000	73.1203
745.3000	73.3001
745.2000	73.3441
745.1000	73.4865
745.0000	73.6182
744.9000	73.7166
744.8000	73.8987
744.7000	73.9835
744.6000	74.2069
744.5000	74.2913
744.4000	74.411
744.3000	74.6839
744.2000	74.8653
744.1000	75.0396
744.0000	75.2535
743.9000	75.3544
743.8000	75.5174
743.7000	75.5467
743.6000	75.7799
743.5000	76.0001
743.4000	76.2125
743.3000	76.3389
743.2000	76.4568
743.1000	76.6894
743.0000	76.7477
742.9000	77.0064
742.8000	77.2343
742.7000	77.3635
742.6000	77.4836
742.5000	77.7042
742.4000	77.8564
742.3000	78.1301
742.2000	78.3586
742.1000	78.5665
742.0000	78.7159
741.9000	78.8816
741.8000	79.0478
741.7000	79.3137
741.6000	79.4871
741.5000	79.6375
741.4000	79.8685
741.3000	79.986
741.2000	80.1316
741.1000	80.2515
741.0000	80.5815
740.9000	80.658
740.8000	80.8654
740.7000	80.9664
740.6000	81.1178
740.5000	81.3226
740.4000	81.38
740.3000	81.59
740.2000	81.7036
740.1000	81.8209
740.0000	81.9849
739.9000	82.1632
739.8000	82.1949
739.7000	82.3452
739.6000	82.4464
739.5000	82.5979
739.4000	82.7661
739.3000	82.8989
739.2000	83.0385
739.1000	83.0615
739.0000	83.1828
738.9000	83.2359
738.8000	83.3032
738.7000	83.4147
738.6000	83.5172
738.5000	83.6378
738.4000	83.7106
738.3000	83.7103
738.2000	83.7678
738.1000	83.6945
738.0000	83.6813
737.9000	83.6544
737.8000	83.5803
737.7000	83.5969
737.6000	83.6116
737.5000	83.5541
737.4000	83.539
737.3000	83.4793
737.2000	83.4913
737.1000	83.3867
737.0000	83.3117
736.9000	83.1297
736.8000	82.9885
736.7000	82.8332
736.6000	82.6578
736.5000	82.6196
736.4000	82.5113
736.3000	82.4236
736.2000	82.2989
736.1000	82.1893
736.0000	81.9681
735.9000	81.9404
735.8000	81.7846
735.7000	81.6882
735.6000	81.5422
735.5000	81.4419
735.4000	81.286
735.3000	81.1635
735.2000	81.0442
735.1000	80.9615
735.0000	80.8923
734.9000	80.7712
734.8000	80.6192
734.7000	80.4057
734.6000	80.2644
734.5000	80.0522
734.4000	79.914
734.3000	79.7612
734.2000	79.5459
734.1000	79.3265
734.0000	79.1266
733.9000	78.9102
733.8000	78.6762
733.7000	78.4558
733.6000	78.2713
733.5000	78.0585
733.4000	77.8161
