TITLE	p-GaN
DATA TYPE	ULTRAVIOLET SPECTRUM
ORIGIN	JASCO
OWNER	
DATE	21/05/05
TIME	17:52:36
SPECTROMETER/DATA SYSTEM	
RESOLUTION	
DELTAX	-0.1
XUNITS	NANOMETERS
YUNITS	TRANSMITTANCE
FIRSTX	  850.0000
LASTX	  300.0000
NPOINTS	    5501
FIRSTY	    77.49433
MAXY	    77.74112
MINY	     0.11690
XYDATA
850.0000	77.4943
849.9000	77.4012
849.8000	76.9879
849.7000	77.0359
849.6000	77.2141
849.5000	77.1137
849.4000	76.7583
849.3000	76.7443
849.2000	77.045
849.1000	77.0447
849.0000	77.1621
848.9000	77.1859
848.8000	77.177
848.7000	77.0907
848.6000	77.1678
848.5000	77.0809
848.4000	76.984
848.3000	77.0225
848.2000	77.3968
848.1000	77.3495
848.0000	77.2099
847.9000	77.1862
847.8000	77.4705
847.7000	77.5197
847.6000	77.5405
847.5000	77.3075
847.4000	77.2821
847.3000	77.5023
847.2000	77.6066
847.1000	77.6923
847.0000	77.6245
846.9000	77.6299
846.8000	77.7411
846.7000	77.6347
846.6000	77.4731
846.5000	77.4941
846.4000	77.5209
846.3000	77.6197
846.2000	77.3352
846.1000	77.3758
846.0000	77.1729
845.9000	77.3391
845.8000	77.2847
845.7000	76.9182
845.6000	76.791
845.5000	76.6289
845.4000	76.786
845.3000	76.717
845.2000	76.6505
845.1000	76.6167
845.0000	76.4962
844.9000	76.2603
844.8000	76.1897
844.7000	75.9471
844.6000	76.2031
844.5000	76.2341
844.4000	76.1846
844.3000	75.8811
844.2000	75.8321
844.1000	76.1844
844.0000	76.3649
843.9000	76.1743
843.8000	76.1278
843.7000	75.9784
843.6000	76.0725
843.5000	76.1869
843.4000	76.1055
843.3000	76.1863
843.2000	76.2488
843.1000	76.4485
843.0000	76.0929
842.9000	75.7797
842.8000	75.7398
842.7000	76.0676
842.6000	76.0759
842.5000	75.6849
842.4000	75.4559
842.3000	75.7817
842.2000	75.6842
842.1000	75.6971
842.0000	75.2581
841.9000	75.2846
841.8000	75.4298
841.7000	75.2633
841.6000	74.993
841.5000	74.6628
841.4000	74.8281
841.3000	75.1736
841.2000	75.177
841.1000	74.9186
841.0000	74.884
840.9000	75.0491
840.8000	75.0839
840.7000	74.7169
840.6000	74.5698
840.5000	74.5621
840.4000	74.8951
840.3000	74.8519
840.2000	74.4524
840.1000	74.3003
840.0000	74.5513
839.9000	74.812
839.8000	74.6598
839.7000	74.2705
839.6000	74.3194
839.5000	74.5447
839.4000	74.5965
839.3000	74.3283
839.2000	74.184
839.1000	74.505
839.0000	74.7006
838.9000	74.723
838.8000	74.3612
838.7000	74.2345
838.6000	74.7608
838.5000	74.9649
838.4000	74.6678
838.3000	74.496
838.2000	74.6567
838.1000	74.8823
838.0000	74.7654
837.9000	74.5771
837.8000	74.4797
837.7000	74.8124
837.6000	74.8659
837.5000	74.5639
837.4000	74.3249
837.3000	74.2439
837.2000	74.6657
837.1000	74.6412
837.0000	74.255
836.9000	74.276
836.8000	74.6312
836.7000	74.7028
836.6000	74.4218
836.5000	74.2029
836.4000	74.4435
836.3000	74.5978
836.2000	74.6088
836.1000	74.2837
836.0000	74.396
835.9000	74.6114
835.8000	74.8464
835.7000	74.7322
835.6000	74.4403
835.5000	74.6578
835.4000	75.0031
835.3000	74.9676
835.2000	74.6038
835.1000	74.6278
835.0000	74.9885
834.9000	75.1231
834.8000	74.8022
834.7000	74.6218
834.6000	74.7639
834.5000	75.0233
834.4000	74.9495
834.3000	74.7645
834.2000	74.7146
834.1000	75.0632
834.0000	75.2649
833.9000	75.0113
833.8000	74.7007
833.7000	74.906
833.6000	75.1767
833.5000	75.1122
833.4000	74.8331
833.3000	74.943
833.2000	75.2367
833.1000	75.2866
833.0000	75.1677
832.9000	75.0598
832.8000	75.2865
832.7000	75.6272
832.6000	75.6139
832.5000	75.2031
832.4000	75.1268
832.3000	75.313
832.2000	75.4682
832.1000	75.0762
832.0000	75.0132
831.9000	75.1551
831.8000	75.4759
831.7000	75.2537
831.6000	74.9666
831.5000	74.9601
831.4000	75.0836
831.3000	75.2372
831.2000	75.0443
831.1000	74.7254
831.0000	74.8018
830.9000	75.2075
830.8000	75.3027
830.7000	75.0461
830.6000	75.0116
830.5000	75.4497
830.4000	75.62
830.3000	75.5236
830.2000	75.2238
830.1000	75.5053
830.0000	75.871
829.9000	75.905
829.8000	75.7561
829.7000	75.5917
829.6000	75.8374
829.5000	75.998
829.4000	75.9346
829.3000	75.7443
829.2000	75.8317
829.1000	76.1574
829.0000	76.2982
828.9000	76.0288
828.8000	75.8626
828.7000	75.9937
828.6000	76.205
828.5000	75.9585
828.4000	75.7801
828.3000	75.9365
828.2000	76.1516
828.1000	76.1504
828.0000	76.0332
827.9000	76.1444
827.8000	76.1402
827.7000	76.155
827.6000	76.0045
827.5000	75.8593
827.4000	75.8198
827.3000	76.0798
827.2000	76.1391
827.1000	75.9693
827.0000	76.1063
826.9000	76.3274
826.8000	76.402
826.7000	76.2956
826.6000	76.2119
826.5000	76.4315
826.4000	76.5654
826.3000	76.3212
826.2000	76.4185
826.1000	76.5719
826.0000	76.8087
825.9000	76.8023
825.8000	76.7967
825.7000	76.6407
825.6000	76.8543
825.5000	77.0869
825.4000	76.9582
825.3000	77.0789
825.2000	77.2956
825.1000	77.4078
825.0000	77.3523
824.9000	77.3255
824.8000	77.1871
824.7000	77.3465
824.6000	77.1928
824.5000	77.0998
824.4000	77.1633
824.3000	77.3663
824.2000	77.4731
824.1000	77.4128
824.0000	77.2247
823.9000	77.2835
823.8000	77.2886
823.7000	77.1588
823.6000	76.9692
823.5000	76.9832
823.4000	77.0733
823.3000	77.0442
823.2000	76.9084
823.1000	77.0782
823.0000	77.269
822.9000	77.4182
822.8000	77.0309
822.7000	76.9564
822.6000	76.9993
822.5000	77.2041
822.4000	77.2344
822.3000	76.9965
822.2000	77.0368
822.1000	77.0859
822.0000	77.0933
821.9000	76.9441
821.8000	76.9524
821.7000	77.0491
821.6000	77.2535
821.5000	77.0515
821.4000	76.8959
821.3000	76.8261
821.2000	76.9809
821.1000	76.7993
821.0000	76.6035
820.9000	76.5574
820.8000	76.7073
820.7000	76.8038
820.6000	76.641
820.5000	76.5394
820.4000	76.6903
820.3000	76.7159
820.2000	76.6141
820.1000	76.4198
820.0000	76.4181
819.9000	76.3778
819.8000	76.4431
819.7000	76.3502
819.6000	76.4285
819.5000	76.5727
819.4000	76.6391
819.3000	76.4729
819.2000	76.4257
819.1000	76.4763
819.0000	76.6002
818.9000	76.4728
818.8000	76.4143
818.7000	76.5409
818.6000	76.6311
818.5000	76.5613
818.4000	76.4792
818.3000	76.734
818.2000	76.7677
818.1000	76.6345
818.0000	76.6133
817.9000	76.5978
817.8000	76.6087
817.7000	76.6516
817.6000	76.436
817.5000	76.3469
817.4000	76.358
817.3000	76.4042
817.2000	76.1089
817.1000	75.9711
817.0000	75.9971
816.9000	76.0644
816.8000	75.8906
816.7000	75.6371
816.6000	75.6447
816.5000	75.8071
816.4000	75.7708
816.3000	75.5547
816.2000	75.6159
816.1000	75.8473
816.0000	75.835
815.9000	75.6324
815.8000	75.5498
815.7000	75.8255
815.6000	75.9045
815.5000	75.6602
815.4000	75.3842
815.3000	75.5061
815.2000	75.711
815.1000	75.5917
815.0000	75.4352
814.9000	75.474
814.8000	75.2892
814.7000	75.317
814.6000	74.9819
814.5000	74.7706
814.4000	74.9105
814.3000	75.0159
814.2000	74.8103
814.1000	74.5039
814.0000	74.6174
813.9000	74.8909
813.8000	74.9213
813.7000	74.6371
813.6000	74.6463
813.5000	74.7456
813.4000	74.6431
813.3000	74.3319
813.2000	74.4716
813.1000	74.6882
813.0000	74.7175
812.9000	74.4721
812.8000	74.2297
812.7000	74.2658
812.6000	74.4269
812.5000	74.2859
812.4000	74.0836
812.3000	74.1545
812.2000	74.3031
812.1000	74.2196
812.0000	73.8397
811.9000	73.8419
811.8000	74.1997
811.7000	74.2691
811.6000	74.0308
811.5000	73.9601
811.4000	74.1256
811.3000	74.2148
811.2000	74.2231
811.1000	74.1936
811.0000	74.3794
810.9000	74.683
810.8000	74.6844
810.7000	74.3828
810.6000	74.3779
810.5000	74.6692
810.4000	74.763
810.3000	74.658
810.2000	74.4388
810.1000	74.6403
810.0000	74.6495
809.9000	74.4816
809.8000	74.3929
809.7000	74.6302
809.6000	74.6753
809.5000	74.5606
809.4000	74.2224
809.3000	74.216
809.2000	74.3444
809.1000	74.3825
809.0000	74.2066
808.9000	74.1735
808.8000	74.3403
808.7000	74.3734
808.6000	74.2346
808.5000	74.197
808.4000	74.3677
808.3000	74.3918
808.2000	74.3323
808.1000	74.2515
808.0000	74.4225
807.9000	74.4831
807.8000	74.4512
807.7000	74.3527
807.6000	74.6289
807.5000	74.7349
807.4000	74.6788
807.3000	74.5725
807.2000	74.6763
807.1000	74.7829
807.0000	74.8561
806.9000	74.7029
806.8000	74.7532
806.7000	74.9565
806.6000	74.993
806.5000	74.9018
806.4000	74.9022
806.3000	75.1006
806.2000	75.1704
806.1000	75.0258
806.0000	74.7649
805.9000	75.0309
805.8000	75.2757
805.7000	75.2423
805.6000	75.1874
805.5000	75.3584
805.4000	75.4635
805.3000	75.5154
805.2000	75.3972
805.1000	75.3496
805.0000	75.566
804.9000	75.6072
804.8000	75.5333
804.7000	75.5663
804.6000	75.7919
804.5000	75.956
804.4000	75.882
804.3000	75.7571
804.2000	75.7747
804.1000	75.8127
804.0000	75.7639
803.9000	75.7251
803.8000	75.9159
803.7000	76.0488
803.6000	76.1599
803.5000	76.1657
803.4000	76.168
803.3000	76.2613
803.2000	76.1335
803.1000	75.9808
803.0000	76.0217
802.9000	75.9969
802.8000	75.9973
802.7000	75.8546
802.6000	75.9573
802.5000	76.1455
802.4000	76.1515
802.3000	76.0671
802.2000	75.972
802.1000	76.0966
802.0000	76.0561
801.9000	76.03
801.8000	76.0368
801.7000	76.1316
801.6000	76.1631
801.5000	76.108
801.4000	76.0144
801.3000	76.1574
801.2000	76.1908
801.1000	76.3161
801.0000	76.4024
800.9000	76.3818
800.8000	76.5082
800.7000	76.4537
800.6000	76.5119
800.5000	76.4415
800.4000	76.4504
800.3000	76.5065
800.2000	76.496
800.1000	76.6256
800.0000	76.791
799.9000	76.9081
799.8000	77.0547
799.7000	77.0382
799.6000	77.0725
799.5000	77.0694
799.4000	76.9903
799.3000	77.1284
799.2000	77.1137
799.1000	77.1898
799.0000	77.0973
798.9000	77.2122
798.8000	77.3602
798.7000	77.4382
798.6000	77.441
798.5000	77.352
798.4000	77.3482
798.3000	77.3321
798.2000	77.3957
798.1000	77.4863
798.0000	77.4856
797.9000	77.4427
797.8000	77.4334
797.7000	77.3979
797.6000	77.3568
797.5000	77.3302
797.4000	77.3244
797.3000	77.2756
797.2000	77.1605
797.1000	77.0227
797.0000	77.0054
796.9000	77.0093
796.8000	76.8829
796.7000	76.9064
796.6000	76.7861
796.5000	76.8485
796.4000	76.9834
796.3000	77.077
796.2000	77.1026
796.1000	77.0284
796.0000	77.0243
795.9000	77.0622
795.8000	77.173
795.7000	77.1227
795.6000	77.2174
795.5000	77.3557
795.4000	77.3653
795.3000	77.36
795.2000	77.4756
795.1000	77.5337
795.0000	77.507
794.9000	77.3599
794.8000	77.1895
794.7000	77.1379
794.6000	76.9786
794.5000	77.0142
794.4000	76.9509
794.3000	76.922
794.2000	76.8307
794.1000	76.8978
794.0000	76.8497
793.9000	76.6642
793.8000	76.7467
793.7000	76.8211
793.6000	76.7716
793.5000	76.6308
793.4000	76.5772
793.3000	76.5804
793.2000	76.6275
793.1000	76.4622
793.0000	76.4917
792.9000	76.4089
792.8000	76.371
792.7000	76.2429
792.6000	76.1768
792.5000	76.0886
792.4000	75.9527
792.3000	75.9339
792.2000	75.7941
792.1000	75.7067
792.0000	75.6126
791.9000	75.5279
791.8000	75.5439
791.7000	75.5733
791.6000	75.571
791.5000	75.5464
791.4000	75.5694
791.3000	75.6816
791.2000	75.6441
791.1000	75.5248
791.0000	75.5414
790.9000	75.4898
790.8000	75.5384
790.7000	75.5016
790.6000	75.3744
790.5000	75.3862
790.4000	75.3838
790.3000	75.4293
790.2000	75.3709
790.1000	75.2932
790.0000	75.1647
789.9000	75.18
789.8000	75.0731
789.7000	75.0004
789.6000	74.9957
789.5000	74.9907
789.4000	74.9799
789.3000	75.1298
789.2000	75.1686
789.1000	75.0548
789.0000	75.1364
788.9000	75.104
788.8000	75.1552
788.7000	74.9794
788.6000	74.9683
788.5000	75.0964
788.4000	75.099
788.3000	75.0357
788.2000	75.0375
788.1000	74.9086
788.0000	74.8716
787.9000	74.901
787.8000	74.7322
787.7000	74.6299
787.6000	74.5613
787.5000	74.5214
787.4000	74.5245
787.3000	74.4481
787.2000	74.3572
787.1000	74.4119
787.0000	74.4292
786.9000	74.4336
786.8000	74.3849
786.7000	74.3769
786.6000	74.3582
786.5000	74.4722
786.4000	74.4897
786.3000	74.5013
786.2000	74.6095
786.1000	74.5897
786.0000	74.5542
785.9000	74.5933
785.8000	74.5494
785.7000	74.6229
785.6000	74.6748
785.5000	74.6776
785.4000	74.729
785.3000	74.6532
785.2000	74.6901
785.1000	74.6817
785.0000	74.7067
784.9000	74.7538
784.8000	74.787
784.7000	74.6634
784.6000	74.6329
784.5000	74.5698
784.4000	74.5663
784.3000	74.5527
784.2000	74.5768
784.1000	74.5142
784.0000	74.5244
783.9000	74.5469
783.8000	74.4678
783.7000	74.4712
783.6000	74.4836
783.5000	74.5256
783.4000	74.5049
783.3000	74.5101
783.2000	74.5225
783.1000	74.671
783.0000	74.735
782.9000	74.8304
782.8000	74.8942
782.7000	74.9775
782.6000	75.0229
782.5000	75.0355
782.4000	75.0336
782.3000	75.064
782.2000	75.1656
782.1000	75.1598
782.0000	75.2907
781.9000	75.2916
781.8000	75.3675
781.7000	75.3174
781.6000	75.3216
781.5000	75.2672
781.4000	75.2753
781.3000	75.3486
781.2000	75.4285
781.1000	75.4545
781.0000	75.4995
780.9000	75.6026
780.8000	75.7178
780.7000	75.7831
780.6000	75.8417
780.5000	75.8321
780.4000	75.7636
780.3000	75.7305
780.2000	75.8214
780.1000	75.8863
780.0000	75.8915
779.9000	75.9966
779.8000	76.1442
779.7000	76.003
779.6000	75.9641
779.5000	76.087
779.4000	76.1056
779.3000	76.0862
779.2000	76.0013
779.1000	76.0473
779.0000	76.0596
778.9000	76.058
778.8000	76.0317
778.7000	76.2759
778.6000	76.2834
778.5000	76.2534
778.4000	76.3212
778.3000	76.4798
778.2000	76.5481
778.1000	76.6643
778.0000	76.6483
777.9000	76.7178
777.8000	76.8124
777.7000	76.7556
777.6000	76.7924
777.5000	76.9596
777.4000	77.0258
777.3000	76.9902
777.2000	76.975
777.1000	77.0329
777.0000	77.1317
776.9000	77.0908
776.8000	77.1177
776.7000	77.1981
776.6000	77.066
776.5000	76.9678
776.4000	76.9973
776.3000	77.0613
776.2000	76.9416
776.1000	76.8848
776.0000	76.9772
775.9000	76.9376
775.8000	76.7698
775.7000	76.6948
775.6000	76.8871
775.5000	76.9705
775.4000	76.8551
775.3000	76.8568
775.2000	76.9637
775.1000	77.0666
775.0000	77.1089
774.9000	77.0339
774.8000	77.071
774.7000	77.151
774.6000	77.2056
774.5000	77.2571
774.4000	77.3194
774.3000	77.3647
774.2000	77.4822
774.1000	77.564
774.0000	77.5876
773.9000	77.4643
773.8000	77.4524
773.7000	77.394
773.6000	77.4831
773.5000	77.3055
773.4000	77.25
773.3000	77.3786
773.2000	77.4182
773.1000	77.2924
773.0000	77.2943
772.9000	77.2572
772.8000	77.2135
772.7000	77.1186
772.6000	77.0159
772.5000	77.1364
772.4000	77.1251
772.3000	77.1288
772.2000	77.1181
772.1000	77.249
772.0000	77.1394
771.9000	77.1438
771.8000	77.0601
771.7000	77.1919
771.6000	77.2308
771.5000	77.1805
771.4000	77.1129
771.3000	77.1726
771.2000	77.2363
771.1000	77.1172
771.0000	77.0555
770.9000	77.0367
770.8000	77.007
770.7000	76.89
770.6000	76.9018
770.5000	76.8511
770.4000	76.7658
770.3000	76.6357
770.2000	76.6852
770.1000	76.5771
770.0000	76.4565
769.9000	76.4416
769.8000	76.4885
769.7000	76.4204
769.6000	76.2053
769.5000	76.1563
769.4000	76.3034
769.3000	76.139
769.2000	75.9791
769.1000	76.0617
769.0000	76.1972
768.9000	76.1041
768.8000	76.0399
768.7000	76.2179
768.6000	76.1376
768.5000	75.9613
768.4000	75.9122
768.3000	75.9602
768.2000	75.9287
768.1000	75.8237
768.0000	75.724
767.9000	75.8994
767.8000	75.8595
767.7000	75.7513
767.6000	75.8409
767.5000	75.9682
767.4000	75.7944
767.3000	75.7196
767.2000	75.7509
767.1000	75.7316
767.0000	75.7153
766.9000	75.702
766.8000	75.7179
766.7000	75.7845
766.6000	75.6955
766.5000	75.5555
766.4000	75.7414
766.3000	75.7371
766.2000	75.595
766.1000	75.5966
766.0000	75.6101
765.9000	75.4926
765.8000	75.375
765.7000	75.4027
765.6000	75.5341
765.5000	75.5056
765.4000	75.383
765.3000	75.4807
765.2000	75.5735
765.1000	75.4106
765.0000	75.2971
764.9000	75.5333
764.8000	75.6213
764.7000	75.4687
764.6000	75.3126
764.5000	75.4762
764.4000	75.505
764.3000	75.3257
764.2000	75.2971
764.1000	75.343
764.0000	75.2244
763.9000	75.0277
763.8000	75.1191
763.7000	75.1987
763.6000	75.0925
763.5000	74.9341
763.4000	75.025
763.3000	75.0469
763.2000	74.8748
763.1000	74.7608
763.0000	75.0044
762.9000	75.0102
762.8000	74.7538
762.7000	74.7255
762.6000	74.8867
762.5000	74.9408
762.4000	74.7787
762.3000	74.843
762.2000	74.9793
762.1000	74.7973
762.0000	74.7132
761.9000	74.9256
761.8000	75.1093
761.7000	74.8555
761.6000	74.7122
761.5000	74.9079
761.4000	74.9526
761.3000	74.6891
761.2000	74.7339
761.1000	74.969
761.0000	74.9374
760.9000	74.692
760.8000	74.7655
760.7000	74.8667
760.6000	74.8676
760.5000	74.7846
760.4000	74.8401
760.3000	74.903
760.2000	74.7113
760.1000	74.7104
760.0000	75.0123
759.9000	75.1377
759.8000	74.9194
759.7000	75.0677
759.6000	75.3157
759.5000	75.1649
759.4000	75.0695
759.3000	75.2075
759.2000	75.3907
759.1000	75.4481
759.0000	75.2569
758.9000	75.4811
758.8000	75.5747
758.7000	75.4298
758.6000	75.4394
758.5000	75.7313
758.4000	75.6703
758.3000	75.3891
758.2000	75.5057
758.1000	75.6861
758.0000	75.5875
757.9000	75.6048
757.8000	75.724
757.7000	75.9462
757.6000	75.8247
757.5000	75.7134
757.4000	75.9988
757.3000	75.9728
757.2000	75.8691
757.1000	75.9977
757.0000	76.2152
756.9000	76.1708
756.8000	76.0271
756.7000	76.2432
756.6000	76.3905
756.5000	76.2765
756.4000	76.2462
756.3000	76.4089
756.2000	76.4556
756.1000	76.2633
756.0000	76.3299
755.9000	76.5342
755.8000	76.4488
755.7000	76.3843
755.6000	76.5055
755.5000	76.5672
755.4000	76.4057
755.3000	76.306
755.2000	76.5681
755.1000	76.6617
755.0000	76.5475
754.9000	76.6594
754.8000	76.822
754.7000	76.8151
754.6000	76.6849
754.5000	76.8384
754.4000	76.9391
754.3000	76.7983
754.2000	76.7569
754.1000	76.943
754.0000	76.9544
753.9000	76.8399
753.8000	76.9215
753.7000	77.0938
753.6000	76.9846
753.5000	76.9816
753.4000	77.1211
753.3000	77.0909
753.2000	76.9867
753.1000	76.9666
753.0000	77.2369
752.9000	77.1709
752.8000	77.0781
752.7000	77.1329
752.6000	77.2154
752.5000	77.1376
752.4000	77.1349
752.3000	77.2912
752.2000	77.3558
752.1000	77.298
752.0000	77.3731
751.9000	77.3717
751.8000	77.3207
751.7000	77.278
751.6000	77.4187
751.5000	77.4356
751.4000	77.2651
751.3000	77.3657
751.2000	77.4427
751.1000	77.499
751.0000	77.4661
750.9000	77.5262
750.8000	77.5515
750.7000	77.4665
750.6000	77.421
750.5000	77.535
750.4000	77.5004
750.3000	77.3632
750.2000	77.4433
750.1000	77.5278
750.0000	77.3705
749.9000	77.3081
749.8000	77.3467
749.7000	77.2615
749.6000	77.0202
749.5000	76.9415
749.4000	77.0429
749.3000	76.9158
749.2000	76.7852
749.1000	76.8059
749.0000	76.8022
748.9000	76.6099
748.8000	76.5182
748.7000	76.7413
748.6000	76.6452
748.5000	76.5664
748.4000	76.706
748.3000	76.7794
748.2000	76.6634
748.1000	76.6604
748.0000	76.8908
747.9000	76.8496
747.8000	76.7069
747.7000	76.7906
747.6000	76.9088
747.5000	76.8648
747.4000	76.7785
747.3000	76.907
747.2000	76.9246
747.1000	76.6271
747.0000	76.608
746.9000	76.6688
746.8000	76.5372
746.7000	76.3288
746.6000	76.4619
746.5000	76.4435
746.4000	76.3088
746.3000	76.2944
746.2000	76.3635
746.1000	76.2303
746.0000	76.0891
745.9000	76.1173
745.8000	76.1031
745.7000	75.8214
745.6000	75.7668
745.5000	75.985
745.4000	75.8976
745.3000	75.741
745.2000	75.8117
745.1000	75.9514
745.0000	75.7298
744.9000	75.6603
744.8000	75.8354
744.7000	75.7874
744.6000	75.6414
744.5000	75.7071
744.4000	75.8353
744.3000	75.6103
744.2000	75.6033
744.1000	75.9022
744.0000	75.9059
743.9000	75.5876
743.8000	75.6214
743.7000	75.6887
743.6000	75.5012
743.5000	75.4126
743.4000	75.6341
743.3000	75.5648
743.2000	75.2218
743.1000	75.2684
743.0000	75.3624
742.9000	75.2345
742.8000	75.114
742.7000	75.3445
742.6000	75.2625
742.5000	74.9394
742.4000	74.9901
742.3000	75.2491
742.2000	75.1445
742.1000	75.0084
742.0000	75.2657
741.9000	75.2521
741.8000	74.949
741.7000	75.0291
741.6000	75.2714
741.5000	75.103
741.4000	74.9554
741.3000	75.091
741.2000	75.1017
741.1000	74.8378
741.0000	74.9747
740.9000	75.2083
740.8000	75.0621
740.7000	74.8235
740.6000	75.0412
740.5000	75.1702
740.4000	74.7982
740.3000	74.8091
740.2000	75.0804
740.1000	75.0218
740.0000	74.7716
739.9000	74.9946
739.8000	75.0713
739.7000	74.876
739.6000	74.8415
739.5000	75.1419
739.4000	75.1309
739.3000	74.9181
739.2000	75.0887
739.1000	75.2535
739.0000	75.0499
738.9000	74.9543
738.8000	75.2902
738.7000	75.3212
738.6000	75.113
738.5000	75.328
738.4000	75.5408
738.3000	75.429
738.2000	75.3711
738.1000	75.5043
738.0000	75.4975
737.9000	75.2613
737.8000	75.3664
737.7000	75.5907
737.6000	75.496
737.5000	75.3518
737.4000	75.6427
737.3000	75.6857
737.2000	75.4824
737.1000	75.61
737.0000	75.879
736.9000	75.6453
736.8000	75.6027
736.7000	75.7744
736.6000	75.8076
736.5000	75.6562
736.4000	75.722
736.3000	75.9318
736.2000	75.8081
736.1000	75.7554
736.0000	75.9789
735.9000	76.0954
735.8000	75.8753
735.7000	76.0117
735.6000	76.2454
735.5000	76.0606
735.4000	75.9112
735.3000	76.1686
735.2000	76.1611
735.1000	76.0462
735.0000	76.2196
734.9000	76.4202
734.8000	76.3039
734.7000	76.1858
734.6000	76.4201
734.5000	76.3968
734.4000	76.1858
734.3000	76.3269
734.2000	76.4769
734.1000	76.4222
734.0000	76.3361
733.9000	76.5574
733.8000	76.5983
733.7000	76.4945
733.6000	76.6335
733.5000	76.7232
