TITLE	n-GaN
DATA TYPE	ULTRAVIOLET SPECTRUM
ORIGIN	JASCO
OWNER	
DATE	19/11/21
TIME	17:01:56
SPECTROMETER/DATA SYSTEM	
RESOLUTION	
DELTAX	-1
XUNITS	NANOMETERS
YUNITS	TRANSMITTANCE
FIRSTX	 2500.0000
LASTX	  300.0000
NPOINTS	    2201
FIRSTY	    83.45750
MAXY	    86.04787
MINY	     0.00617
XYDATA
2500.0000	83.4575
2499.0000	83.6671
2498.0000	84.0225
2497.0000	84.0876
2496.0000	84.0352
2495.0000	84.0574
2494.0000	84.325
2493.0000	84.4031
2492.0000	84.3339
2491.0000	84.4174
2490.0000	84.6021
2489.0000	84.7448
2488.0000	84.7031
2487.0000	84.7672
2486.0000	84.9242
2485.0000	84.9815
2484.0000	85.0374
2483.0000	85.0337
2482.0000	85.1936
2481.0000	85.1522
2480.0000	85.224
2479.0000	85.1757
2478.0000	85.2154
2477.0000	85.1622
2476.0000	85.0642
2475.0000	85.0718
2474.0000	85.1285
2473.0000	85.0469
2472.0000	84.9663
2471.0000	85.0347
2470.0000	85.0304
2469.0000	85.1236
2468.0000	84.9739
2467.0000	84.9574
2466.0000	85.0268
2465.0000	84.9267
2464.0000	84.8412
2463.0000	84.7185
2462.0000	84.7693
2461.0000	84.5587
2460.0000	84.4164
2459.0000	84.3923
2458.0000	84.3262
2457.0000	84.1944
2456.0000	83.9693
2455.0000	83.9568
2454.0000	83.9085
2453.0000	83.7221
2452.0000	83.6211
2451.0000	83.5692
2450.0000	83.4755
2449.0000	83.3016
2448.0000	83.1744
2447.0000	83.09
2446.0000	82.9593
2445.0000	82.8382
2444.0000	82.693
2443.0000	82.6772
2442.0000	82.5031
2441.0000	82.1997
2440.0000	82.0362
2439.0000	81.9156
2438.0000	81.5975
2437.0000	81.3689
2436.0000	81.2227
2435.0000	81.1946
2434.0000	80.9664
2433.0000	80.7742
2432.0000	80.7732
2431.0000	80.6388
2430.0000	80.3779
2429.0000	80.1541
2428.0000	80.0315
2427.0000	79.9085
2426.0000	79.6755
2425.0000	79.4677
2424.0000	79.3037
2423.0000	79.0654
2422.0000	78.8382
2421.0000	78.6882
2420.0000	78.5546
2419.0000	78.3119
2418.0000	78.0817
2417.0000	77.9952
2416.0000	77.8891
2415.0000	77.6782
2414.0000	77.4074
2413.0000	77.3118
2412.0000	77.142
2411.0000	76.9112
2410.0000	76.6999
2409.0000	76.5733
2408.0000	76.4417
2407.0000	76.2394
2406.0000	76.1323
2405.0000	76.0199
2404.0000	75.9053
2403.0000	75.6915
2402.0000	75.5405
2401.0000	75.4819
2400.0000	75.2941
2399.0000	75.0805
2398.0000	74.9844
2397.0000	74.9042
2396.0000	74.7152
2395.0000	74.4493
2394.0000	74.3944
2393.0000	74.322
2392.0000	74.0821
2391.0000	73.9693
2390.0000	73.869
2389.0000	73.8035
2388.0000	73.7115
2387.0000	73.582
2386.0000	73.5689
2385.0000	73.4284
2384.0000	73.3201
2383.0000	73.3232
2382.0000	73.2477
2381.0000	73.2073
2380.0000	73.1297
2379.0000	73.0887
2378.0000	72.9949
2377.0000	72.9244
2376.0000	72.7928
2375.0000	72.7847
2374.0000	72.7394
2373.0000	72.6495
2372.0000	72.6691
2371.0000	72.6918
2370.0000	72.7237
2369.0000	72.7291
2368.0000	72.6985
2367.0000	72.6412
2366.0000	72.6185
2365.0000	72.6007
2364.0000	72.5919
2363.0000	72.5381
2362.0000	72.5315
2361.0000	72.6036
2360.0000	72.6427
2359.0000	72.6422
2358.0000	72.6802
2357.0000	72.7435
2356.0000	72.8195
2355.0000	72.8254
2354.0000	72.9069
2353.0000	72.9934
2352.0000	73.0262
2351.0000	73.0551
2350.0000	73.0639
2349.0000	73.1407
2348.0000	73.1594
2347.0000	73.2643
2346.0000	73.3191
2345.0000	73.4395
2344.0000	73.5165
2343.0000	73.6881
2342.0000	73.8556
2341.0000	73.9032
2340.0000	74.0547
2339.0000	74.2199
2338.0000	74.3753
2337.0000	74.4561
2336.0000	74.5131
2335.0000	74.6098
2334.0000	74.7479
2333.0000	74.822
2332.0000	74.9518
2331.0000	75.1627
2330.0000	75.2759
2329.0000	75.4691
2328.0000	75.6371
2327.0000	75.8399
2326.0000	76.0673
2325.0000	76.2437
2324.0000	76.4076
2323.0000	76.6481
2322.0000	76.798
2321.0000	76.9483
2320.0000	77.1678
2319.0000	77.3783
2318.0000	77.49
2317.0000	77.671
2316.0000	77.8943
2315.0000	78.0709
2314.0000	78.2895
2313.0000	78.5143
2312.0000	78.7612
2311.0000	79.0024
2310.0000	79.2097
2309.0000	79.4151
2308.0000	79.6231
2307.0000	79.8013
2306.0000	79.9102
2305.0000	80.0604
2304.0000	80.2343
2303.0000	80.4992
2302.0000	80.6483
2301.0000	80.8127
2300.0000	81.0147
2299.0000	81.2379
2298.0000	81.36
2297.0000	81.5477
2296.0000	81.7264
2295.0000	82.0044
2294.0000	82.175
2293.0000	82.3807
2292.0000	82.5516
2291.0000	82.7362
2290.0000	82.9575
2289.0000	83.1336
2288.0000	83.2794
2287.0000	83.4287
2286.0000	83.6026
2285.0000	83.6936
2284.0000	83.8308
2283.0000	83.9982
2282.0000	84.1391
2281.0000	84.3364
2280.0000	84.513
2279.0000	84.5673
2278.0000	84.7546
2277.0000	84.8758
2276.0000	85.0248
2275.0000	85.026
2274.0000	85.1328
2273.0000	85.2068
2272.0000	85.3139
2271.0000	85.3403
2270.0000	85.3564
2269.0000	85.4424
2268.0000	85.4417
2267.0000	85.4688
2266.0000	85.4138
2265.0000	85.4939
2264.0000	85.5179
2263.0000	85.5131
2262.0000	85.4997
2261.0000	85.5642
2260.0000	85.5094
2259.0000	85.4893
2258.0000	85.437
2257.0000	85.356
2256.0000	85.4179
2255.0000	85.3236
2254.0000	85.288
2253.0000	85.1796
2252.0000	85.1724
2251.0000	85.1366
2250.0000	85.0304
2249.0000	84.9056
2248.0000	84.7696
2247.0000	84.6391
2246.0000	84.5283
2245.0000	84.4157
2244.0000	84.2743
2243.0000	84.1494
2242.0000	84.0228
2241.0000	83.8992
2240.0000	83.7562
2239.0000	83.5686
2238.0000	83.4538
2237.0000	83.2045
2236.0000	83.077
2235.0000	82.9302
2234.0000	82.6965
2233.0000	82.5056
2232.0000	82.3224
2231.0000	82.1498
2230.0000	81.8821
2229.0000	81.6825
2228.0000	81.4852
2227.0000	81.2791
2226.0000	81.1052
2225.0000	80.867
2224.0000	80.5893
2223.0000	80.4101
2222.0000	80.1957
2221.0000	79.9585
2220.0000	79.7774
2219.0000	79.5722
2218.0000	79.3397
2217.0000	79.0899
2216.0000	78.8303
2215.0000	78.6295
2214.0000	78.3571
2213.0000	78.1168
2212.0000	77.8681
2211.0000	77.6857
2210.0000	77.5442
2209.0000	77.2721
2208.0000	76.9978
2207.0000	76.8357
2206.0000	76.6865
2205.0000	76.4207
2204.0000	76.2074
2203.0000	75.951
2202.0000	75.7877
2201.0000	75.5902
2200.0000	75.3813
2199.0000	75.2026
2198.0000	75.0124
2197.0000	74.8385
2196.0000	74.683
2195.0000	74.4117
2194.0000	74.246
2193.0000	74.1035
2192.0000	73.9666
2191.0000	73.8423
2190.0000	73.7538
2189.0000	73.6412
2188.0000	73.4811
2187.0000	73.3798
2186.0000	73.2161
2185.0000	73.1131
2184.0000	72.9737
2183.0000	72.8704
2182.0000	72.7499
2181.0000	72.6503
2180.0000	72.5773
2179.0000	72.4975
2178.0000	72.4181
2177.0000	72.4208
2176.0000	72.3235
2175.0000	72.3197
2174.0000	72.2251
2173.0000	72.1953
2172.0000	72.1271
2171.0000	72.0781
2170.0000	72.1121
2169.0000	72.0637
2168.0000	71.9979
2167.0000	71.9873
2166.0000	71.9945
2165.0000	72.0226
2164.0000	72.0261
2163.0000	72.0309
2162.0000	72.0756
2161.0000	72.1321
2160.0000	72.2154
2159.0000	72.2991
2158.0000	72.322
2157.0000	72.3467
2156.0000	72.4502
2155.0000	72.5886
2154.0000	72.6083
2153.0000	72.6849
2152.0000	72.7868
2151.0000	72.955
2150.0000	73.062
2149.0000	73.1453
2148.0000	73.3044
2147.0000	73.4208
2146.0000	73.599
2145.0000	73.6891
2144.0000	73.9237
2143.0000	74.0635
2142.0000	74.2517
2141.0000	74.3828
2140.0000	74.5118
2139.0000	74.7259
2138.0000	74.8603
2137.0000	75.0174
2136.0000	75.2156
2135.0000	75.4143
2134.0000	75.6335
2133.0000	75.8269
2132.0000	76.0333
2131.0000	76.2542
2130.0000	76.4824
2129.0000	76.7026
2128.0000	76.9931
2127.0000	77.2351
2126.0000	77.4833
2125.0000	77.7288
2124.0000	77.931
2123.0000	78.1381
2122.0000	78.3763
2121.0000	78.7044
2120.0000	78.936
2119.0000	79.2311
2118.0000	79.5342
2117.0000	79.7986
2116.0000	80.0858
2115.0000	80.2649
2114.0000	80.4466
2113.0000	80.6629
2112.0000	80.9054
2111.0000	81.1525
2110.0000	81.395
2109.0000	81.6661
2108.0000	81.9397
2107.0000	82.2308
2106.0000	82.4656
2105.0000	82.6858
2104.0000	82.8878
2103.0000	83.1376
2102.0000	83.33
2101.0000	83.5726
2100.0000	83.7606
2099.0000	83.9276
2098.0000	84.1569
2097.0000	84.335
2096.0000	84.5102
2095.0000	84.7155
2094.0000	84.8528
2093.0000	85.0134
2092.0000	85.177
2091.0000	85.3
2090.0000	85.4697
2089.0000	85.4938
2088.0000	85.5873
2087.0000	85.7289
2086.0000	85.7893
2085.0000	85.797
2084.0000	85.9035
2083.0000	85.9439
2082.0000	85.9606
2081.0000	85.9666
2080.0000	85.9627
2079.0000	86.0352
2078.0000	86.0479
2077.0000	85.9492
2076.0000	85.9903
2075.0000	85.9481
2074.0000	85.9159
2073.0000	85.8963
2072.0000	85.7531
2071.0000	85.7048
2070.0000	85.611
2069.0000	85.4927
2068.0000	85.3188
2067.0000	85.2206
2066.0000	85.0123
2065.0000	84.9499
2064.0000	84.8163
2063.0000	84.6425
2062.0000	84.4749
2061.0000	84.3326
2060.0000	84.1249
2059.0000	84.0135
2058.0000	83.7242
2057.0000	83.5382
2056.0000	83.3039
2055.0000	83.0529
2054.0000	82.8534
2053.0000	82.6171
2052.0000	82.3467
2051.0000	82.1082
2050.0000	81.8857
2049.0000	81.6888
2048.0000	81.4757
2047.0000	81.1889
2046.0000	80.93
2045.0000	80.7426
2044.0000	80.3926
2043.0000	80.1433
2042.0000	79.8289
2041.0000	79.4833
2040.0000	79.2689
2039.0000	78.9688
2038.0000	78.6906
2037.0000	78.484
2036.0000	78.1605
2035.0000	77.9441
2034.0000	77.7191
2033.0000	77.3351
2032.0000	77.2284
2031.0000	76.925
2030.0000	76.6348
2029.0000	76.4864
2028.0000	76.1984
2027.0000	76.0846
2026.0000	75.8004
2025.0000	75.5289
2024.0000	75.3821
2023.0000	75.0979
2022.0000	74.8659
2021.0000	74.6538
2020.0000	74.4248
2019.0000	74.2629
2018.0000	74.118
2017.0000	73.8539
2016.0000	73.7758
2015.0000	73.5419
2014.0000	73.397
2013.0000	73.2675
2012.0000	72.993
2011.0000	72.9621
2010.0000	72.804
2009.0000	72.618
2008.0000	72.6125
2007.0000	72.4341
2006.0000	72.4556
2005.0000	72.4273
2004.0000	72.3197
2003.0000	72.369
2002.0000	72.375
2001.0000	72.3629
2000.0000	72.424
1999.0000	72.3471
1998.0000	72.3622
1997.0000	72.4192
1996.0000	72.3554
1995.0000	72.4604
1994.0000	72.3271
1993.0000	72.4223
1992.0000	72.4931
1991.0000	72.4318
1990.0000	72.6306
1989.0000	72.6004
1988.0000	72.7382
1987.0000	72.882
1986.0000	72.9006
1985.0000	73.0959
1984.0000	73.2122
1983.0000	73.285
1982.0000	73.5092
1981.0000	73.5889
1980.0000	73.8476
1979.0000	74.0521
1978.0000	74.0303
1977.0000	74.3106
1976.0000	74.4423
1975.0000	74.6727
1974.0000	74.8845
1973.0000	75.0084
1972.0000	75.3691
1971.0000	75.5268
1970.0000	75.7908
1969.0000	76.1566
1968.0000	76.2655
1967.0000	76.7045
1966.0000	76.8707
1965.0000	77.1285
1964.0000	77.4777
1963.0000	77.5862
1962.0000	77.9304
1961.0000	78.0973
1960.0000	78.416
1959.0000	78.7588
1958.0000	78.9627
1957.0000	79.3654
1956.0000	79.5905
1955.0000	79.9272
1954.0000	80.2129
1953.0000	80.4239
1952.0000	80.8123
1951.0000	81.0565
1950.0000	81.3612
1949.0000	81.6915
1948.0000	81.9483
1947.0000	82.3562
1946.0000	82.4692
1945.0000	82.7555
1944.0000	83.0237
1943.0000	83.1614
1942.0000	83.4034
1941.0000	83.5019
1940.0000	83.7067
1939.0000	83.9226
1938.0000	83.9858
1937.0000	84.1861
1936.0000	84.2831
1935.0000	84.4827
1934.0000	84.6436
1933.0000	84.7722
1932.0000	84.9477
1931.0000	84.9945
1930.0000	85.2043
1929.0000	85.2355
1928.0000	85.2776
1927.0000	85.3266
1926.0000	85.3985
1925.0000	85.5799
1924.0000	85.5924
1923.0000	85.7503
1922.0000	85.7979
1921.0000	85.8225
1920.0000	85.8245
1919.0000	85.7309
1918.0000	85.7565
1917.0000	85.6701
1916.0000	85.6054
1915.0000	85.5968
1914.0000	85.4771
1913.0000	85.4026
1912.0000	85.1021
1911.0000	84.7873
1910.0000	84.4688
1909.0000	84.1189
1908.0000	83.6772
1907.0000	83.1414
1906.0000	82.7348
1905.0000	82.3817
1904.0000	82.2247
1903.0000	81.9227
1902.0000	81.8911
1901.0000	81.9025
1900.0000	81.6285
1899.0000	81.586
1898.0000	81.3822
1897.0000	81.2095
1896.0000	80.9178
1895.0000	80.6473
1894.0000	80.5157
1893.0000	80.2405
1892.0000	80.0416
1891.0000	79.6247
1890.0000	79.2603
1889.0000	78.7714
1888.0000	78.223
1887.0000	77.8088
1886.0000	77.3211
1885.0000	77.0391
1884.0000	76.7508
1883.0000	76.5525
1882.0000	76.2597
1881.0000	75.9679
1880.0000	75.7764
1879.0000	75.3635
1878.0000	75.2131
1877.0000	74.9834
1876.0000	74.9345
1875.0000	74.9036
1874.0000	74.7866
1873.0000	74.6434
1872.0000	74.2006
1871.0000	73.9285
1870.0000	73.5294
1869.0000	73.267
1868.0000	73.08
1867.0000	73.0375
1866.0000	73.0413
1865.0000	73.136
1864.0000	73.2334
1863.0000	73.1841
1862.0000	73.1983
1861.0000	72.9342
1860.0000	72.7255
1859.0000	72.4082
1858.0000	72.1864
1857.0000	72.0538
1856.0000	71.9678
1855.0000	72.1023
1854.0000	72.2397
1853.0000	72.5614
1852.0000	72.6595
1851.0000	72.8151
1850.0000	72.8904
1849.0000	72.9086
1848.0000	73.0713
1847.0000	73.1517
1846.0000	73.4028
1845.0000	73.59
1844.0000	73.9549
1843.0000	74.2845
1842.0000	74.5782
1841.0000	74.7776
1840.0000	74.864
1839.0000	74.9719
1838.0000	74.9147
1837.0000	74.8813
1836.0000	74.9503
1835.0000	75.1268
1834.0000	75.4055
1833.0000	75.7718
1832.0000	76.0473
1831.0000	76.3702
1830.0000	76.7162
1829.0000	77.0753
1828.0000	77.3555
1827.0000	77.5908
1826.0000	77.8536
1825.0000	78.1366
1824.0000	78.4743
1823.0000	78.6958
1822.0000	78.9948
1821.0000	79.3114
1820.0000	79.6414
1819.0000	79.971
1818.0000	80.2363
1817.0000	80.5159
1816.0000	80.7681
1815.0000	81.0404
1814.0000	81.3306
1813.0000	81.6385
1812.0000	81.9723
1811.0000	82.279
1810.0000	82.54
1809.0000	82.8657
1808.0000	83.1645
1807.0000	83.4407
1806.0000	83.6819
1805.0000	83.9405
1804.0000	84.2011
1803.0000	84.468
1802.0000	84.6593
1801.0000	84.897
1800.0000	85.0941
1799.0000	85.2446
1798.0000	85.4144
1797.0000	85.5329
1796.0000	85.6263
1795.0000	85.6912
1794.0000	85.7636
1793.0000	85.8361
1792.0000	85.8504
1791.0000	85.8719
1790.0000	85.8476
1789.0000	85.8363
1788.0000	85.753
1787.0000	85.6875
1786.0000	85.6048
1785.0000	85.5312
1784.0000	85.391
1783.0000	85.2365
1782.0000	85.051
1781.0000	84.8945
1780.0000	84.6525
1779.0000	84.4111
1778.0000	84.172
1777.0000	83.965
1776.0000	83.7161
1775.0000	83.4273
1774.0000	83.1392
1773.0000	82.8401
1772.0000	82.5111
1771.0000	82.165
1770.0000	81.802
1769.0000	81.4848
1768.0000	81.1181
1767.0000	80.7474
1766.0000	80.3766
1765.0000	79.9952
1764.0000	79.6103
1763.0000	79.2633
1762.0000	78.8886
1761.0000	78.6024
1760.0000	78.2113
1759.0000	77.885
1758.0000	77.5415
1757.0000	77.2161
1756.0000	76.8542
1755.0000	76.5212
1754.0000	76.1743
1753.0000	75.8778
1752.0000	75.56
1751.0000	75.3048
1750.0000	74.9857
1749.0000	74.7206
1748.0000	74.4218
1747.0000	74.1559
1746.0000	73.9004
1745.0000	73.6746
1744.0000	73.4372
1743.0000	73.2462
1742.0000	73.0155
1741.0000	72.8277
1740.0000	72.6465
1739.0000	72.5192
1738.0000	72.3543
1737.0000	72.243
1736.0000	72.1756
1735.0000	72.0955
1734.0000	72.0186
1733.0000	71.9776
1732.0000	71.8831
1731.0000	71.9102
1730.0000	71.8727
1729.0000	71.8969
1728.0000	71.8992
1727.0000	71.9542
1726.0000	72.0199
1725.0000	72.1198
1724.0000	72.2051
1723.0000	72.3384
1722.0000	72.4682
1721.0000	72.6426
1720.0000	72.798
1719.0000	72.9564
1718.0000	73.1331
1717.0000	73.3836
1716.0000	73.6254
1715.0000	73.8719
1714.0000	74.1379
1713.0000	74.4095
1712.0000	74.7206
1711.0000	74.9874
1710.0000	75.3135
1709.0000	75.603
1708.0000	75.9379
1707.0000	76.2952
1706.0000	76.6328
1705.0000	76.9881
1704.0000	77.3252
1703.0000	77.7086
1702.0000	78.1197
1701.0000	78.4577
1700.0000	78.8619
1699.0000	79.2287
1698.0000	79.6414
1697.0000	80.083
1696.0000	80.5158
1695.0000	80.8641
1694.0000	81.2726
1693.0000	81.7056
1692.0000	82.0321
1691.0000	82.4143
1690.0000	82.7326
1689.0000	83.0718
1688.0000	83.389
1687.0000	83.6789
1686.0000	83.9766
1685.0000	84.2152
1684.0000	84.5203
1683.0000	84.7506
1682.0000	84.9725
1681.0000	85.1613
1680.0000	85.3751
1679.0000	85.5283
1678.0000	85.6182
1677.0000	85.6954
1676.0000	85.8084
1675.0000	85.8542
1674.0000	85.8804
1673.0000	85.8653
1672.0000	85.8561
1671.0000	85.7912
1670.0000	85.7185
1669.0000	85.5969
1668.0000	85.4417
1667.0000	85.2963
1666.0000	85.0981
1665.0000	84.8766
1664.0000	84.6548
1663.0000	84.4207
1662.0000	84.1605
1661.0000	83.8349
1660.0000	83.5186
1659.0000	83.2126
1658.0000	82.817
1657.0000	82.4609
1656.0000	82.105
1655.0000	81.7352
1654.0000	81.3585
1653.0000	80.9655
1652.0000	80.6135
1651.0000	80.1956
1650.0000	79.7382
1649.0000	79.3303
1648.0000	78.9461
1647.0000	78.5305
1646.0000	78.1426
1645.0000	77.7248
1644.0000	77.347
1643.0000	76.9959
1642.0000	76.6609
1641.0000	76.2319
1640.0000	75.8771
1639.0000	75.5141
1638.0000	75.1773
1637.0000	74.8446
1636.0000	74.5496
1635.0000	74.2995
1634.0000	74.0129
1633.0000	73.7969
1632.0000	73.5846
1631.0000	73.3848
1630.0000	73.1692
1629.0000	72.9998
1628.0000	72.8283
1627.0000	72.7437
1626.0000	72.6269
1625.0000	72.5502
1624.0000	72.4401
1623.0000	72.389
1622.0000	72.3476
1621.0000	72.319
1620.0000	72.3075
1619.0000	72.3607
1618.0000	72.4262
1617.0000	72.5555
1616.0000	72.5983
1615.0000	72.7062
1614.0000	72.9125
1613.0000	73.0678
1612.0000	73.2233
1611.0000	73.4678
1610.0000	73.6828
1609.0000	74.0195
1608.0000	74.2652
1607.0000	74.5852
1606.0000	74.9059
1605.0000	75.2363
1604.0000	75.579
1603.0000	75.9519
1602.0000	76.3567
1601.0000	76.858
1600.0000	77.4739
1599.0000	78.2741
1598.0000	78.9898
1597.0000	79.5929
1596.0000	80.0892
1595.0000	80.4365
1594.0000	80.6541
1593.0000	80.7905
1592.0000	80.8691
1591.0000	80.9925
1590.0000	81.2802
1589.0000	81.6556
1588.0000	82.0537
1587.0000	82.4755
1586.0000	82.8406
1585.0000	83.2011
1584.0000	83.5461
1583.0000	83.8693
1582.0000	84.1835
1581.0000	84.4208
1580.0000	84.6606
1579.0000	84.8603
1578.0000	85.0491
1577.0000	85.2171
1576.0000	85.3588
1575.0000	85.4229
1574.0000	85.4993
1573.0000	85.5363
1572.0000	85.5722
1571.0000	85.5555
1570.0000	85.4779
1569.0000	85.4084
1568.0000	85.2763
1567.0000	85.1362
1566.0000	84.9282
1565.0000	84.6833
1564.0000	84.3931
1563.0000	84.0867
1562.0000	83.7397
1561.0000	83.3986
1560.0000	83.0698
1559.0000	82.7008
1558.0000	82.3542
1557.0000	81.9305
1556.0000	81.5009
1555.0000	81.0989
1554.0000	80.6423
1553.0000	80.1497
1552.0000	79.6783
1551.0000	79.2321
1550.0000	78.7939
1549.0000	78.3571
1548.0000	77.9254
1547.0000	77.5131
1546.0000	77.0876
1545.0000	76.6876
1544.0000	76.2788
1543.0000	75.8828
1542.0000	75.5158
1541.0000	75.1177
1540.0000	74.7436
1539.0000	74.4518
1538.0000	74.1484
1537.0000	73.8252
1536.0000	73.5565
1535.0000	73.2864
1534.0000	73.061
1533.0000	72.8695
1532.0000	72.7016
1531.0000	72.5434
1530.0000	72.4301
1529.0000	72.3386
1528.0000	72.3019
1527.0000	72.2929
1526.0000	72.2685
1525.0000	72.2717
1524.0000	72.3452
1523.0000	72.413
1522.0000	72.4959
1521.0000	72.6195
1520.0000	72.7665
1519.0000	72.9649
1518.0000	73.1497
1517.0000	73.3774
1516.0000	73.649
1515.0000	73.9521
1514.0000	74.2482
1513.0000	74.6123
1512.0000	74.9947
1511.0000	75.3616
1510.0000	75.7679
1509.0000	76.1804
1508.0000	76.61
1507.0000	77.0326
1506.0000	77.4532
1505.0000	77.8767
1504.0000	78.3749
1503.0000	78.8614
1502.0000	79.3291
1501.0000	79.8443
1500.0000	80.336
1499.0000	80.8201
1498.0000	81.2998
1497.0000	81.7363
1496.0000	82.1637
1495.0000	82.6088
1494.0000	83.0243
1493.0000	83.3967
1492.0000	83.7777
1491.0000	84.1448
1490.0000	84.4576
1489.0000	84.7371
1488.0000	85.0146
1487.0000	85.2572
1486.0000	85.4366
1485.0000	85.5835
1484.0000	85.6861
1483.0000	85.7515
1482.0000	85.7652
1481.0000	85.7508
1480.0000	85.6822
1479.0000	85.5803
1478.0000	85.4025
1477.0000	85.2166
1476.0000	84.9609
1475.0000	84.6716
1474.0000	84.3576
1473.0000	84.0078
1472.0000	83.6241
1471.0000	83.2546
1470.0000	82.8348
1469.0000	82.3552
1468.0000	81.8818
1467.0000	81.3933
1466.0000	80.8827
1465.0000	80.3706
1464.0000	79.8761
1463.0000	79.3277
1462.0000	78.8163
1461.0000	78.2807
1460.0000	77.7789
