TITLE	GaN
DATA TYPE	ULTRAVIOLET SPECTRUM
ORIGIN	JASCO
OWNER	
DATE	19/11/20
TIME	09:12:05
SPECTROMETER/DATA SYSTEM	
RESOLUTION	
DELTAX	-1
XUNITS	NANOMETERS
YUNITS	TRANSMITTANCE
FIRSTX	 2500.0000
LASTX	  300.0000
NPOINTS	    2201
FIRSTY	    18.97298
MAXY	    27.22773
MINY	    -0.06761
XYDATA
2500.0000	18.973
2499.0000	19.0355
2498.0000	19.051
2497.0000	18.9991
2496.0000	18.9885
2495.0000	19.0362
2494.0000	19.1393
2493.0000	19.1336
2492.0000	19.1527
2491.0000	19.2312
2490.0000	19.2759
2489.0000	19.2941
2488.0000	19.3033
2487.0000	19.3501
2486.0000	19.4332
2485.0000	19.4518
2484.0000	19.4788
2483.0000	19.5495
2482.0000	19.6123
2481.0000	19.6591
2480.0000	19.6795
2479.0000	19.7805
2478.0000	19.8306
2477.0000	19.7906
2476.0000	19.7729
2475.0000	19.7537
2474.0000	19.7648
2473.0000	19.728
2472.0000	19.7102
2471.0000	19.7935
2470.0000	19.854
2469.0000	19.9175
2468.0000	19.9126
2467.0000	19.9252
2466.0000	19.9539
2465.0000	19.9248
2464.0000	19.8947
2463.0000	19.9175
2462.0000	19.9305
2461.0000	19.8981
2460.0000	19.8958
2459.0000	19.8713
2458.0000	19.8785
2457.0000	19.8603
2456.0000	19.8954
2455.0000	19.85
2454.0000	19.893
2453.0000	19.8305
2452.0000	19.8879
2451.0000	19.8813
2450.0000	19.8176
2449.0000	19.8102
2448.0000	19.776
2447.0000	19.7971
2446.0000	19.8005
2445.0000	19.79
2444.0000	19.7804
2443.0000	19.815
2442.0000	19.7998
2441.0000	19.753
2440.0000	19.665
2439.0000	19.6035
2438.0000	19.558
2437.0000	19.5022
2436.0000	19.4791
2435.0000	19.4739
2434.0000	19.4578
2433.0000	19.4565
2432.0000	19.5165
2431.0000	19.4925
2430.0000	19.4269
2429.0000	19.4006
2428.0000	19.3589
2427.0000	19.3532
2426.0000	19.2708
2425.0000	19.2397
2424.0000	19.2095
2423.0000	19.1632
2422.0000	19.098
2421.0000	19.0778
2420.0000	19.0778
2419.0000	18.9908
2418.0000	18.9518
2417.0000	18.9106
2416.0000	18.9259
2415.0000	18.8598
2414.0000	18.8365
2413.0000	18.8398
2412.0000	18.8218
2411.0000	18.7865
2410.0000	18.7023
2409.0000	18.6693
2408.0000	18.6026
2407.0000	18.5268
2406.0000	18.5244
2405.0000	18.5053
2404.0000	18.5173
2403.0000	18.5204
2402.0000	18.4936
2401.0000	18.5052
2400.0000	18.4843
2399.0000	18.4414
2398.0000	18.391
2397.0000	18.3504
2396.0000	18.3226
2395.0000	18.293
2394.0000	18.2647
2393.0000	18.2129
2392.0000	18.1896
2391.0000	18.1719
2390.0000	18.1569
2389.0000	18.1266
2388.0000	18.0674
2387.0000	18.0573
2386.0000	18.0271
2385.0000	17.9628
2384.0000	17.9215
2383.0000	17.9106
2382.0000	17.9253
2381.0000	17.9361
2380.0000	17.9167
2379.0000	17.9244
2378.0000	17.9363
2377.0000	17.8737
2376.0000	17.8574
2375.0000	17.8381
2374.0000	17.8365
2373.0000	17.8323
2372.0000	17.8539
2371.0000	17.8556
2370.0000	17.8701
2369.0000	17.8927
2368.0000	17.8985
2367.0000	17.8945
2366.0000	17.8979
2365.0000	17.8855
2364.0000	17.8971
2363.0000	17.906
2362.0000	17.8921
2361.0000	17.9164
2360.0000	17.9224
2359.0000	17.9261
2358.0000	17.9482
2357.0000	17.9684
2356.0000	17.951
2355.0000	17.9632
2354.0000	17.952
2353.0000	17.9807
2352.0000	18.0075
2351.0000	18.014
2350.0000	18.0521
2349.0000	18.0821
2348.0000	18.0692
2347.0000	18.0965
2346.0000	18.1111
2345.0000	18.1247
2344.0000	18.1409
2343.0000	18.1772
2342.0000	18.2283
2341.0000	18.2722
2340.0000	18.3338
2339.0000	18.3632
2338.0000	18.4024
2337.0000	18.4185
2336.0000	18.4635
2335.0000	18.4778
2334.0000	18.5104
2333.0000	18.5567
2332.0000	18.6012
2331.0000	18.6629
2330.0000	18.7053
2329.0000	18.757
2328.0000	18.8176
2327.0000	18.8576
2326.0000	18.8871
2325.0000	18.9333
2324.0000	18.979
2323.0000	19.0394
2322.0000	19.0687
2321.0000	19.1097
2320.0000	19.1812
2319.0000	19.2236
2318.0000	19.2824
2317.0000	19.3333
2316.0000	19.3704
2315.0000	19.4288
2314.0000	19.4557
2313.0000	19.5066
2312.0000	19.5468
2311.0000	19.6013
2310.0000	19.6661
2309.0000	19.7178
2308.0000	19.7682
2307.0000	19.8299
2306.0000	19.8647
2305.0000	19.9195
2304.0000	19.9686
2303.0000	20.0371
2302.0000	20.1013
2301.0000	20.1462
2300.0000	20.2176
2299.0000	20.2615
2298.0000	20.3295
2297.0000	20.3464
2296.0000	20.3603
2295.0000	20.4063
2294.0000	20.4569
2293.0000	20.552
2292.0000	20.5993
2291.0000	20.6836
2290.0000	20.7451
2289.0000	20.8235
2288.0000	20.8848
2287.0000	20.902
2286.0000	20.9498
2285.0000	20.96
2284.0000	21
2283.0000	21.0413
2282.0000	21.1071
2281.0000	21.1308
2280.0000	21.1725
2279.0000	21.2255
2278.0000	21.2733
2277.0000	21.3041
2276.0000	21.3184
2275.0000	21.336
2274.0000	21.3579
2273.0000	21.3707
2272.0000	21.3737
2271.0000	21.4318
2270.0000	21.4844
2269.0000	21.5288
2268.0000	21.5362
2267.0000	21.5488
2266.0000	21.5882
2265.0000	21.5903
2264.0000	21.5633
2263.0000	21.5699
2262.0000	21.577
2261.0000	21.6004
2260.0000	21.5847
2259.0000	21.5807
2258.0000	21.621
2257.0000	21.6157
2256.0000	21.5932
2255.0000	21.5614
2254.0000	21.5486
2253.0000	21.5622
2252.0000	21.5083
2251.0000	21.4975
2250.0000	21.4943
2249.0000	21.4842
2248.0000	21.486
2247.0000	21.4695
2246.0000	21.4356
2245.0000	21.3986
2244.0000	21.3846
2243.0000	21.3221
2242.0000	21.2758
2241.0000	21.2262
2240.0000	21.1949
2239.0000	21.1821
2238.0000	21.1211
2237.0000	21.1094
2236.0000	21.0847
2235.0000	21.0493
2234.0000	20.9528
2233.0000	20.8773
2232.0000	20.8364
2231.0000	20.7668
2230.0000	20.6874
2229.0000	20.6118
2228.0000	20.5434
2227.0000	20.4949
2226.0000	20.4586
2225.0000	20.3881
2224.0000	20.3408
2223.0000	20.284
2222.0000	20.2327
2221.0000	20.1375
2220.0000	20.0887
2219.0000	20.0087
2218.0000	19.956
2217.0000	19.8909
2216.0000	19.8318
2215.0000	19.7974
2214.0000	19.7326
2213.0000	19.732
2212.0000	19.6612
2211.0000	19.5745
2210.0000	19.521
2209.0000	19.4872
2208.0000	19.4204
2207.0000	19.35
2206.0000	19.2814
2205.0000	19.2209
2204.0000	19.1744
2203.0000	19.1006
2202.0000	19.0473
2201.0000	19.0188
2200.0000	18.9525
2199.0000	18.9416
2198.0000	18.8986
2197.0000	18.9073
2196.0000	18.8347
2195.0000	18.804
2194.0000	18.7882
2193.0000	18.7211
2192.0000	18.7106
2191.0000	18.6429
2190.0000	18.6369
2189.0000	18.5783
2188.0000	18.5488
2187.0000	18.5125
2186.0000	18.4447
2185.0000	18.4369
2184.0000	18.3943
2183.0000	18.3609
2182.0000	18.3323
2181.0000	18.3318
2180.0000	18.312
2179.0000	18.2961
2178.0000	18.2607
2177.0000	18.2353
2176.0000	18.2261
2175.0000	18.1845
2174.0000	18.1886
2173.0000	18.1658
2172.0000	18.1478
2171.0000	18.1313
2170.0000	18.1401
2169.0000	18.1126
2168.0000	18.1317
2167.0000	18.1085
2166.0000	18.1121
2165.0000	18.1035
2164.0000	18.12
2163.0000	18.1609
2162.0000	18.1769
2161.0000	18.2059
2160.0000	18.2009
2159.0000	18.2092
2158.0000	18.2246
2157.0000	18.213
2156.0000	18.2118
2155.0000	18.2408
2154.0000	18.2218
2153.0000	18.2293
2152.0000	18.2543
2151.0000	18.2851
2150.0000	18.3183
2149.0000	18.3469
2148.0000	18.3822
2147.0000	18.4456
2146.0000	18.4972
2145.0000	18.54
2144.0000	18.5592
2143.0000	18.6011
2142.0000	18.6506
2141.0000	18.6637
2140.0000	18.6767
2139.0000	18.7142
2138.0000	18.7612
2137.0000	18.8143
2136.0000	18.8197
2135.0000	18.8859
2134.0000	18.9642
2133.0000	18.9911
2132.0000	19.0435
2131.0000	19.0998
2130.0000	19.1666
2129.0000	19.2399
2128.0000	19.3316
2127.0000	19.3818
2126.0000	19.4837
2125.0000	19.5362
2124.0000	19.6099
2123.0000	19.6551
2122.0000	19.7196
2121.0000	19.8146
2120.0000	19.877
2119.0000	19.9639
2118.0000	19.9943
2117.0000	20.089
2116.0000	20.1784
2115.0000	20.2335
2114.0000	20.2965
2113.0000	20.3701
2112.0000	20.439
2111.0000	20.4917
2110.0000	20.5537
2109.0000	20.6098
2108.0000	20.6919
2107.0000	20.7733
2106.0000	20.823
2105.0000	20.9119
2104.0000	21.0004
2103.0000	21.0864
2102.0000	21.1638
2101.0000	21.216
2100.0000	21.2573
2099.0000	21.338
2098.0000	21.3531
2097.0000	21.3983
2096.0000	21.4458
2095.0000	21.4794
2094.0000	21.5205
2093.0000	21.5651
2092.0000	21.6551
2091.0000	21.6917
2090.0000	21.7676
2089.0000	21.7991
2088.0000	21.8545
2087.0000	21.8836
2086.0000	21.8935
2085.0000	21.9345
2084.0000	21.9449
2083.0000	21.9617
2082.0000	21.9797
2081.0000	21.9917
2080.0000	22.0117
2079.0000	22.0296
2078.0000	22.034
2077.0000	22.0654
2076.0000	22.0908
2075.0000	22.0761
2074.0000	22.093
2073.0000	22.0719
2072.0000	22.0603
2071.0000	22.051
2070.0000	22.0708
2069.0000	22.0488
2068.0000	22.021
2067.0000	22.0071
2066.0000	21.9689
2065.0000	21.9679
2064.0000	21.9348
2063.0000	21.8715
2062.0000	21.8289
2061.0000	21.7893
2060.0000	21.7642
2059.0000	21.7312
2058.0000	21.6433
2057.0000	21.6291
2056.0000	21.565
2055.0000	21.5155
2054.0000	21.4708
2053.0000	21.3924
2052.0000	21.3242
2051.0000	21.28
2050.0000	21.2024
2049.0000	21.1416
2048.0000	21.0846
2047.0000	21.0275
2046.0000	20.988
2045.0000	20.9073
2044.0000	20.8297
2043.0000	20.7928
2042.0000	20.7263
2041.0000	20.6656
2040.0000	20.6041
2039.0000	20.5324
2038.0000	20.5111
2037.0000	20.4276
2036.0000	20.3385
2035.0000	20.288
2034.0000	20.2191
2033.0000	20.1301
2032.0000	20.0876
2031.0000	20.001
2030.0000	19.9201
2029.0000	19.8922
2028.0000	19.7884
2027.0000	19.7494
2026.0000	19.7146
2025.0000	19.6338
2024.0000	19.6028
2023.0000	19.5377
2022.0000	19.4611
2021.0000	19.4474
2020.0000	19.3658
2019.0000	19.3338
2018.0000	19.2649
2017.0000	19.2072
2016.0000	19.1801
2015.0000	19.1222
2014.0000	19.066
2013.0000	19.0389
2012.0000	18.9967
2011.0000	18.9919
2010.0000	18.9461
2009.0000	18.9065
2008.0000	18.9021
2007.0000	18.8464
2006.0000	18.8264
2005.0000	18.7929
2004.0000	18.7601
2003.0000	18.7709
2002.0000	18.7307
2001.0000	18.7448
2000.0000	18.7542
1999.0000	18.7237
1998.0000	18.766
1997.0000	18.7557
1996.0000	18.7829
1995.0000	18.7828
1994.0000	18.7329
1993.0000	18.8118
1992.0000	18.804
1991.0000	18.8015
1990.0000	18.8484
1989.0000	18.8645
1988.0000	18.9202
1987.0000	18.9472
1986.0000	18.9139
1985.0000	18.9854
1984.0000	18.9853
1983.0000	19.052
1982.0000	19.1013
1981.0000	19.1371
1980.0000	19.249
1979.0000	19.2866
1978.0000	19.3342
1977.0000	19.3617
1976.0000	19.4099
1975.0000	19.4839
1974.0000	19.4959
1973.0000	19.545
1972.0000	19.6022
1971.0000	19.6563
1970.0000	19.7442
1969.0000	19.7975
1968.0000	19.844
1967.0000	19.9347
1966.0000	19.9329
1965.0000	20.0185
1964.0000	20.0598
1963.0000	20.0871
1962.0000	20.1358
1961.0000	20.1295
1960.0000	20.2173
1959.0000	20.2311
1958.0000	20.2494
1957.0000	20.3406
1956.0000	20.4001
1955.0000	20.509
1954.0000	20.5675
1953.0000	20.6394
1952.0000	20.7757
1951.0000	20.8066
1950.0000	20.9213
1949.0000	20.9947
1948.0000	21.0886
1947.0000	21.1788
1946.0000	21.2429
1945.0000	21.3367
1944.0000	21.3483
1943.0000	21.3678
1942.0000	21.4202
1941.0000	21.4275
1940.0000	21.4828
1939.0000	21.4938
1938.0000	21.5588
1937.0000	21.6453
1936.0000	21.7124
1935.0000	21.799
1934.0000	21.8336
1933.0000	21.8448
1932.0000	21.8843
1931.0000	21.8852
1930.0000	21.911
1929.0000	21.8896
1928.0000	21.9243
1927.0000	21.928
1926.0000	21.9265
1925.0000	21.8556
1924.0000	21.7611
1923.0000	21.7149
1922.0000	21.7045
1921.0000	21.7395
1920.0000	21.7483
1919.0000	21.779
1918.0000	21.8371
1917.0000	21.8075
1916.0000	21.7883
1915.0000	21.7287
1914.0000	21.7072
1913.0000	21.7104
1912.0000	21.6691
1911.0000	21.6211
1910.0000	21.5112
1909.0000	21.3465
1908.0000	21.1479
1907.0000	20.9731
1906.0000	20.8335
1905.0000	20.7003
1904.0000	20.6682
1903.0000	20.631
1902.0000	20.7106
1901.0000	20.7182
1900.0000	21.4692
1899.0000	21.5503
1898.0000	21.5654
1897.0000	21.6097
1896.0000	21.5614
1895.0000	21.4996
1894.0000	21.3953
1893.0000	21.3123
1892.0000	21.2693
1891.0000	21.2098
1890.0000	21.1821
1889.0000	21.1013
1888.0000	21.0335
1887.0000	20.9464
1886.0000	20.8664
1885.0000	20.8178
1884.0000	20.7357
1883.0000	20.7105
1882.0000	20.6034
1881.0000	20.5011
1880.0000	20.3812
1879.0000	20.1551
1878.0000	19.8652
1877.0000	19.5367
1876.0000	19.2222
1875.0000	18.9432
1874.0000	18.7052
1873.0000	18.5787
1872.0000	18.5955
1871.0000	18.7435
1870.0000	18.9655
1869.0000	19.2253
1868.0000	19.4691
1867.0000	19.6229
1866.0000	19.6543
1865.0000	19.702
1864.0000	19.6602
1863.0000	19.5404
1862.0000	19.4474
1861.0000	19.3089
1860.0000	19.2446
1859.0000	19.1925
1858.0000	19.1754
1857.0000	19.2064
1856.0000	19.2856
1855.0000	19.3764
1854.0000	19.3845
1853.0000	19.3526
1852.0000	19.2486
1851.0000	19.1921
1850.0000	19.1628
1849.0000	19.1773
1848.0000	19.2706
1847.0000	19.3699
1846.0000	19.4799
1845.0000	19.527
1844.0000	19.6017
1843.0000	19.5423
1842.0000	19.5521
1841.0000	19.5215
1840.0000	19.5906
1839.0000	19.6934
1838.0000	19.7895
1837.0000	19.9395
1836.0000	20.0096
1835.0000	20.1185
1834.0000	20.1689
1833.0000	20.2878
1832.0000	20.3575
1831.0000	20.4274
1830.0000	20.4897
1829.0000	20.6207
1828.0000	20.7684
1827.0000	20.8895
1826.0000	21.0361
1825.0000	21.136
1824.0000	21.2678
1823.0000	21.3828
1822.0000	21.551
1821.0000	21.6983
1820.0000	21.843
1819.0000	21.969
1818.0000	22.1258
1817.0000	22.2584
1816.0000	22.35
1815.0000	22.4428
1814.0000	22.5439
1813.0000	22.6882
1812.0000	22.8035
1811.0000	22.9447
1810.0000	23.083
1809.0000	23.2034
1808.0000	23.3425
1807.0000	23.4545
1806.0000	23.5641
1805.0000	23.675
1804.0000	23.7841
1803.0000	23.8839
1802.0000	24.0089
1801.0000	24.09
1800.0000	24.1921
1799.0000	24.2643
1798.0000	24.3592
1797.0000	24.4272
1796.0000	24.5026
1795.0000	24.5599
1794.0000	24.6266
1793.0000	24.6951
1792.0000	24.7552
1791.0000	24.7973
1790.0000	24.8144
1789.0000	24.8455
1788.0000	24.8775
1787.0000	24.8862
1786.0000	24.8946
1785.0000	24.8968
1784.0000	24.9145
1783.0000	24.9128
1782.0000	24.8733
1781.0000	24.8777
1780.0000	24.8452
1779.0000	24.8152
1778.0000	24.7689
1777.0000	24.7371
1776.0000	24.6884
1775.0000	24.6433
1774.0000	24.5775
1773.0000	24.5234
1772.0000	24.4678
1771.0000	24.4147
1770.0000	24.3268
1769.0000	24.2653
1768.0000	24.1861
1767.0000	24.1183
1766.0000	24.0414
1765.0000	23.95
1764.0000	23.8724
1763.0000	23.7832
1762.0000	23.6952
1761.0000	23.5939
1760.0000	23.5071
1759.0000	23.4113
1758.0000	23.3164
1757.0000	23.2318
1756.0000	23.1426
1755.0000	23.0683
1754.0000	22.9763
1753.0000	22.9136
1752.0000	22.8176
1751.0000	22.7687
1750.0000	22.6751
1749.0000	22.6182
1748.0000	22.5402
1747.0000	22.4778
1746.0000	22.4108
1745.0000	22.3412
1744.0000	22.2573
1743.0000	22.198
1742.0000	22.1328
1741.0000	22.0787
1740.0000	22.0199
1739.0000	21.9696
1738.0000	21.9166
1737.0000	21.8748
1736.0000	21.84
1735.0000	21.792
1734.0000	21.7513
1733.0000	21.7188
1732.0000	21.6728
1731.0000	21.64
1730.0000	21.6095
1729.0000	21.5768
1728.0000	21.5486
1727.0000	21.5239
1726.0000	21.4903
1725.0000	21.4692
1724.0000	21.4364
1723.0000	21.4262
1722.0000	21.4058
1721.0000	21.3991
1720.0000	21.393
1719.0000	21.3931
1718.0000	21.3919
1717.0000	21.3992
1716.0000	21.4092
1715.0000	21.4122
1714.0000	21.4311
1713.0000	21.4697
1712.0000	21.4621
1711.0000	21.5001
1710.0000	21.5379
1709.0000	21.5874
1708.0000	21.63
1707.0000	21.6504
1706.0000	21.7238
1705.0000	21.7674
1704.0000	21.8072
1703.0000	21.8704
1702.0000	21.9403
1701.0000	22.0206
1700.0000	22.0928
1699.0000	22.1581
1698.0000	22.2968
1697.0000	22.3746
1696.0000	22.5109
1695.0000	22.6306
1694.0000	22.77
1693.0000	22.9432
1692.0000	23.0941
1691.0000	23.2629
1690.0000	23.414
1689.0000	23.578
1688.0000	23.7201
1687.0000	23.866
1686.0000	23.9991
1685.0000	24.1179
1684.0000	24.2496
1683.0000	24.3467
1682.0000	24.448
1681.0000	24.5345
1680.0000	24.6326
1679.0000	24.7354
1678.0000	24.8163
1677.0000	24.8896
1676.0000	24.9677
1675.0000	25.0456
1674.0000	25.1055
1673.0000	25.14
1672.0000	25.1779
1671.0000	25.2067
1670.0000	25.24
1669.0000	25.2648
1668.0000	25.2725
1667.0000	25.2708
1666.0000	25.2612
1665.0000	25.2542
1664.0000	25.2094
1663.0000	25.1537
1662.0000	25.0755
1661.0000	24.9876
1660.0000	24.8787
1659.0000	24.7675
1658.0000	24.6397
1657.0000	24.5016
1656.0000	24.3417
1655.0000	24.1928
1654.0000	24.0427
1653.0000	23.8857
1652.0000	23.7607
1651.0000	23.6074
1650.0000	23.5088
1649.0000	23.3929
1648.0000	23.2715
1647.0000	23.1656
1646.0000	23.0476
1645.0000	22.9304
1644.0000	22.8193
1643.0000	22.7036
1642.0000	22.595
1641.0000	22.4837
1640.0000	22.3738
1639.0000	22.2563
1638.0000	22.1518
1637.0000	22.0566
1636.0000	21.9537
1635.0000	21.8574
1634.0000	21.7689
1633.0000	21.7025
1632.0000	21.6241
1631.0000	21.5658
1630.0000	21.5069
1629.0000	21.4505
1628.0000	21.3999
1627.0000	21.3552
1626.0000	21.3241
1625.0000	21.3013
1624.0000	21.2698
1623.0000	21.2547
1622.0000	21.253
1621.0000	21.2382
1620.0000	21.2406
1619.0000	21.2371
1618.0000	21.2493
1617.0000	21.2646
1616.0000	21.2632
1615.0000	21.3073
1614.0000	21.3576
1613.0000	21.3953
1612.0000	21.4547
1611.0000	21.5136
1610.0000	21.5872
1609.0000	21.655
1608.0000	21.7308
1607.0000	21.8052
1606.0000	21.9
1605.0000	22.0067
1604.0000	22.1148
1603.0000	22.2179
1602.0000	22.3203
1601.0000	22.4713
1600.0000	22.6402
1599.0000	22.8486
1598.0000	23.0569
1597.0000	23.2401
1596.0000	23.4085
1595.0000	23.5527
1594.0000	23.6504
1593.0000	23.7121
1592.0000	23.7532
1591.0000	23.8253
1590.0000	23.9267
1589.0000	24.0527
1588.0000	24.1769
1587.0000	24.3056
1586.0000	24.4525
1585.0000	24.57
1584.0000	24.69
1583.0000	24.7918
1582.0000	24.8998
1581.0000	25.018
1580.0000	25.1087
1579.0000	25.2047
1578.0000	25.2923
1577.0000	25.3816
1576.0000	25.4517
1575.0000	25.5217
1574.0000	25.5913
1573.0000	25.6245
1572.0000	25.6591
1571.0000	25.6723
1570.0000	25.6945
1569.0000	25.6962
1568.0000	25.6887
1567.0000	25.6675
1566.0000	25.6381
1565.0000	25.6034
1564.0000	25.5603
1563.0000	25.4921
1562.0000	25.421
1561.0000	25.3484
1560.0000	25.2577
1559.0000	25.1694
1558.0000	25.0682
1557.0000	24.953
1556.0000	24.8432
1555.0000	24.7193
1554.0000	24.5948
1553.0000	24.475
1552.0000	24.3399
1551.0000	24.2147
1550.0000	24.0829
1549.0000	23.9358
1548.0000	23.8001
1547.0000	23.664
1546.0000	23.5312
1545.0000	23.4063
1544.0000	23.2751
1543.0000	23.1584
1542.0000	23.0207
1541.0000	22.9088
1540.0000	22.7986
1539.0000	22.6992
1538.0000	22.5983
1537.0000	22.5087
1536.0000	22.4155
1535.0000	22.3348
1534.0000	22.2591
1533.0000	22.1849
1532.0000	22.1306
1531.0000	22.0528
1530.0000	22.0259
1529.0000	21.9695
1528.0000	21.9229
1527.0000	21.9076
1526.0000	21.8895
1525.0000	21.8851
1524.0000	21.877
1523.0000	21.8955
1522.0000	21.9138
1521.0000	21.9396
1520.0000	21.9602
1519.0000	22.0086
1518.0000	22.0548
1517.0000	22.1146
1516.0000	22.1786
1515.0000	22.271
1514.0000	22.3507
1513.0000	22.4623
1512.0000	22.5684
1511.0000	22.6755
1510.0000	22.8002
1509.0000	22.907
1508.0000	23.0272
1507.0000	23.1501
1506.0000	23.293
1505.0000	23.4255
1504.0000	23.5718
1503.0000	23.7213
1502.0000	23.8723
1501.0000	24.0171
1500.0000	24.1742
1499.0000	24.3172
1498.0000	24.4679
1497.0000	24.6358
1496.0000	24.7831
1495.0000	24.9352
1494.0000	25.1011
1493.0000	25.2452
1492.0000	25.3758
1491.0000	25.5202
1490.0000	25.6342
1489.0000	25.7392
1488.0000	25.8504
1487.0000	25.942
1486.0000	26.0274
1485.0000	26.0896
1484.0000	26.1581
1483.0000	26.2028
1482.0000	26.2388
1481.0000	26.2663
1480.0000	26.2818
1479.0000	26.2853
1478.0000	26.2536
1477.0000	26.232
1476.0000	26.1686
1475.0000	26.1188
1474.0000	26.05
1473.0000	25.9535
1472.0000	25.8697
1471.0000	25.7591
1470.0000	25.6558
1469.0000	25.5286
1468.0000	25.4047
1467.0000	25.2707
1466.0000	25.1238
1465.0000	24.9718
1464.0000	24.8298
1463.0000	24.6817
1462.0000	24.5242
1461.0000	24.3657
1460.0000	24.2088
1459.0000	24.0545
1458.0000	23.8887
