TITLE	n-GaN
DATA TYPE	ULTRAVIOLET SPECTRUM
ORIGIN	JASCO
OWNER	
DATE	19/11/20
TIME	15:29:49
SPECTROMETER/DATA SYSTEM	
RESOLUTION	
DELTAX	-1
XUNITS	NANOMETERS
YUNITS	TRANSMITTANCE
FIRSTX	 2500.0000
LASTX	  300.0000
NPOINTS	    2201
FIRSTY	    84.75620
MAXY	    86.10127
MINY	     0.00604
XYDATA
2500.0000	84.7562
2499.0000	84.6906
2498.0000	84.761
2497.0000	84.7932
2496.0000	84.8909
2495.0000	84.9304
2494.0000	84.9584
2493.0000	85.0732
2492.0000	85.2254
2491.0000	85.3176
2490.0000	85.404
2489.0000	85.3825
2488.0000	85.4385
2487.0000	85.4236
2486.0000	85.4501
2485.0000	85.543
2484.0000	85.419
2483.0000	85.4501
2482.0000	85.4161
2481.0000	85.3586
2480.0000	85.2581
2479.0000	85.1245
2478.0000	85.1261
2477.0000	85.2087
2476.0000	85.1505
2475.0000	85.2031
2474.0000	85.2024
2473.0000	85.1921
2472.0000	85.1009
2471.0000	85.006
2470.0000	84.8446
2469.0000	84.819
2468.0000	84.6776
2467.0000	84.4602
2466.0000	84.3657
2465.0000	84.3017
2464.0000	84.1987
2463.0000	84.0899
2462.0000	84.0304
2461.0000	83.9566
2460.0000	83.9058
2459.0000	83.7391
2458.0000	83.5978
2457.0000	83.4401
2456.0000	83.2604
2455.0000	83.0641
2454.0000	82.832
2453.0000	82.6861
2452.0000	82.5564
2451.0000	82.4498
2450.0000	82.239
2449.0000	82.1427
2448.0000	81.9537
2447.0000	81.8645
2446.0000	81.7485
2445.0000	81.5421
2444.0000	81.4116
2443.0000	81.2269
2442.0000	81.0965
2441.0000	80.8535
2440.0000	80.664
2439.0000	80.4337
2438.0000	80.2489
2437.0000	80.0405
2436.0000	79.8415
2435.0000	79.6068
2434.0000	79.4075
2433.0000	79.3242
2432.0000	79.2049
2431.0000	79.0213
2430.0000	78.8864
2429.0000	78.7849
2428.0000	78.6242
2427.0000	78.4177
2426.0000	78.1762
2425.0000	78.0156
2424.0000	77.8366
2423.0000	77.6078
2422.0000	77.4551
2421.0000	77.2777
2420.0000	77.1081
2419.0000	76.9005
2418.0000	76.7191
2417.0000	76.5857
2416.0000	76.3953
2415.0000	76.2166
2414.0000	76.0908
2413.0000	75.9994
2412.0000	75.8094
2411.0000	75.7001
2410.0000	75.6034
2409.0000	75.4136
2408.0000	75.2245
2407.0000	75.107
2406.0000	74.9914
2405.0000	74.8688
2404.0000	74.6821
2403.0000	74.5705
2402.0000	74.5019
2401.0000	74.3811
2400.0000	74.2218
2399.0000	74.0535
2398.0000	73.9656
2397.0000	73.7893
2396.0000	73.7223
2395.0000	73.649
2394.0000	73.5486
2393.0000	73.4541
2392.0000	73.4018
2391.0000	73.4226
2390.0000	73.2337
2389.0000	73.1738
2388.0000	73.0889
2387.0000	73.112
2386.0000	73.0351
2385.0000	72.908
2384.0000	72.9171
2383.0000	72.8466
2382.0000	72.6785
2381.0000	72.6726
2380.0000	72.6451
2379.0000	72.5578
2378.0000	72.4768
2377.0000	72.5237
2376.0000	72.5578
2375.0000	72.4681
2374.0000	72.5138
2373.0000	72.5277
2372.0000	72.6478
2371.0000	72.5702
2370.0000	72.643
2369.0000	72.6947
2368.0000	72.6683
2367.0000	72.6777
2366.0000	72.7254
2365.0000	72.7941
2364.0000	72.7259
2363.0000	72.721
2362.0000	72.8296
2361.0000	72.8806
2360.0000	72.9833
2359.0000	73.0088
2358.0000	73.0635
2357.0000	73.118
2356.0000	73.1521
2355.0000	73.2466
2354.0000	73.3714
2353.0000	73.4224
2352.0000	73.5969
2351.0000	73.7599
2350.0000	73.8574
2349.0000	73.8991
2348.0000	73.9643
2347.0000	74.1547
2346.0000	74.2015
2345.0000	74.2682
2344.0000	74.4492
2343.0000	74.6507
2342.0000	74.7487
2341.0000	74.9285
2340.0000	75.1034
2339.0000	75.2653
2338.0000	75.4157
2337.0000	75.5888
2336.0000	75.7797
2335.0000	75.9129
2334.0000	76.0176
2333.0000	76.2906
2332.0000	76.42
2331.0000	76.6081
2330.0000	76.8038
2329.0000	77.0149
2328.0000	77.1943
2327.0000	77.3787
2326.0000	77.5052
2325.0000	77.6846
2324.0000	77.8243
2323.0000	78.1369
2322.0000	78.3378
2321.0000	78.5042
2320.0000	78.6514
2319.0000	78.9257
2318.0000	79.0913
2317.0000	79.1938
2316.0000	79.4012
2315.0000	79.5703
2314.0000	79.8166
2313.0000	80.0048
2312.0000	80.2367
2311.0000	80.4667
2310.0000	80.6257
2309.0000	80.9032
2308.0000	81.0436
2307.0000	81.1873
2306.0000	81.3527
2305.0000	81.5594
2304.0000	81.7985
2303.0000	81.994
2302.0000	82.1887
2301.0000	82.4416
2300.0000	82.6231
2299.0000	82.7183
2298.0000	82.9039
2297.0000	83.0724
2296.0000	83.2772
2295.0000	83.4199
2294.0000	83.595
2293.0000	83.7588
2292.0000	83.8903
2291.0000	84.0547
2290.0000	84.0823
2289.0000	84.1903
2288.0000	84.3053
2287.0000	84.4715
2286.0000	84.5721
2285.0000	84.7067
2284.0000	84.7768
2283.0000	84.9174
2282.0000	84.9701
2281.0000	85.1037
2280.0000	85.1568
2279.0000	85.2063
2278.0000	85.3038
2277.0000	85.3421
2276.0000	85.4402
2275.0000	85.4661
2274.0000	85.5227
2273.0000	85.5705
2272.0000	85.5852
2271.0000	85.5616
2270.0000	85.5565
2269.0000	85.6171
2268.0000	85.5723
2267.0000	85.5253
2266.0000	85.514
2265.0000	85.4962
2264.0000	85.4573
2263.0000	85.3897
2262.0000	85.3888
2261.0000	85.294
2260.0000	85.2083
2259.0000	85.1697
2258.0000	85.096
2257.0000	85.0166
2256.0000	84.8901
2255.0000	84.81
2254.0000	84.7014
2253.0000	84.546
2252.0000	84.3644
2251.0000	84.1858
2250.0000	84.0564
2249.0000	83.8857
2248.0000	83.6818
2247.0000	83.5832
2246.0000	83.4404
2245.0000	83.2645
2244.0000	83.0677
2243.0000	82.8909
2242.0000	82.7219
2241.0000	82.5572
2240.0000	82.3824
2239.0000	82.2415
2238.0000	82.0641
2237.0000	81.9182
2236.0000	81.624
2235.0000	81.4145
2234.0000	81.2058
2233.0000	80.984
2232.0000	80.7165
2231.0000	80.481
2230.0000	80.2399
2229.0000	80.0102
2228.0000	79.7682
2227.0000	79.4824
2226.0000	79.3631
2225.0000	79.196
2224.0000	78.9321
2223.0000	78.7547
2222.0000	78.5441
2221.0000	78.3138
2220.0000	77.9571
2219.0000	77.7433
2218.0000	77.5244
2217.0000	77.2808
2216.0000	77.1594
2215.0000	76.9305
2214.0000	76.726
2213.0000	76.5556
2212.0000	76.3444
2211.0000	76.1099
2210.0000	75.868
2209.0000	75.7159
2208.0000	75.5285
2207.0000	75.3343
2206.0000	75.0694
2205.0000	74.9142
2204.0000	74.7742
2203.0000	74.5132
2202.0000	74.3158
2201.0000	74.1745
2200.0000	74.0649
2199.0000	73.8868
2198.0000	73.7668
2197.0000	73.5832
2196.0000	73.4399
2195.0000	73.3406
2194.0000	73.2089
2193.0000	73.0823
2192.0000	72.9981
2191.0000	72.8327
2190.0000	72.713
2189.0000	72.623
2188.0000	72.5254
2187.0000	72.4433
2186.0000	72.3164
2185.0000	72.2852
2184.0000	72.2688
2183.0000	72.1625
2182.0000	72.1399
2181.0000	72.0674
2180.0000	72.0643
2179.0000	72.0088
2178.0000	71.9898
2177.0000	71.9331
2176.0000	71.957
2175.0000	71.9367
2174.0000	71.9015
2173.0000	71.8613
2172.0000	71.8612
2171.0000	71.9319
2170.0000	72.0002
2169.0000	72.1086
2168.0000	72.1531
2167.0000	72.1558
2166.0000	72.2026
2165.0000	72.2749
2164.0000	72.4008
2163.0000	72.4306
2162.0000	72.4506
2161.0000	72.5387
2160.0000	72.6686
2159.0000	72.7725
2158.0000	72.8467
2157.0000	72.931
2156.0000	73.1025
2155.0000	73.2308
2154.0000	73.3899
2153.0000	73.4812
2152.0000	73.6253
2151.0000	73.8518
2150.0000	74.0503
2149.0000	74.17
2148.0000	74.3678
2147.0000	74.5241
2146.0000	74.7065
2145.0000	74.8565
2144.0000	75.0186
2143.0000	75.2405
2142.0000	75.4862
2141.0000	75.7374
2140.0000	75.9047
2139.0000	76.1813
2138.0000	76.4081
2137.0000	76.6112
2136.0000	76.8344
2135.0000	77.1011
2134.0000	77.309
2133.0000	77.5464
2132.0000	77.7982
2131.0000	78.0392
2130.0000	78.3281
2129.0000	78.5705
2128.0000	78.7737
2127.0000	79.0426
2126.0000	79.2908
2125.0000	79.485
2124.0000	79.8181
2123.0000	80.0828
2122.0000	80.2461
2121.0000	80.5487
2120.0000	80.8441
2119.0000	81.0787
2118.0000	81.2547
2117.0000	81.3539
2116.0000	81.6679
2115.0000	81.9618
2114.0000	82.1685
2113.0000	82.3202
2112.0000	82.6937
2111.0000	82.8894
2110.0000	83.1637
2109.0000	83.3711
2108.0000	83.6407
2107.0000	83.8462
2106.0000	84.1006
2105.0000	84.2701
2104.0000	84.4478
2103.0000	84.6736
2102.0000	84.7284
2101.0000	84.8752
2100.0000	85.0262
2099.0000	85.1945
2098.0000	85.2777
2097.0000	85.4223
2096.0000	85.544
2095.0000	85.6626
2094.0000	85.7975
2093.0000	85.8029
2092.0000	85.9541
2091.0000	85.9157
2090.0000	85.8894
2089.0000	85.9744
2088.0000	85.9717
2087.0000	86.044
2086.0000	86.0563
2085.0000	86.0341
2084.0000	86.1013
2083.0000	86.0631
2082.0000	86.069
2081.0000	86.0314
2080.0000	85.999
2079.0000	85.9495
2078.0000	85.8671
2077.0000	85.7594
2076.0000	85.6188
2075.0000	85.4965
2074.0000	85.3471
2073.0000	85.2092
2072.0000	85.0798
2071.0000	84.855
2070.0000	84.7177
2069.0000	84.5725
2068.0000	84.3716
2067.0000	84.1368
2066.0000	83.9892
2065.0000	83.7557
2064.0000	83.5995
2063.0000	83.342
2062.0000	83.1214
2061.0000	82.9111
2060.0000	82.6584
2059.0000	82.4518
2058.0000	82.2345
2057.0000	81.8703
2056.0000	81.7395
2055.0000	81.4434
2054.0000	81.1699
2053.0000	80.9536
2052.0000	80.5926
2051.0000	80.3168
2050.0000	80.1108
2049.0000	79.7787
2048.0000	79.5876
2047.0000	79.2825
2046.0000	78.9423
2045.0000	78.7778
2044.0000	78.471
2043.0000	78.1187
2042.0000	77.9261
2041.0000	77.6378
2040.0000	77.4499
2039.0000	77.26
2038.0000	76.9531
2037.0000	76.7362
2036.0000	76.5359
2035.0000	76.2551
2034.0000	76.0371
2033.0000	75.8139
2032.0000	75.5221
2031.0000	75.423
2030.0000	75.1081
2029.0000	74.948
2028.0000	74.7427
2027.0000	74.412
2026.0000	74.3369
2025.0000	74.0993
2024.0000	73.8623
2023.0000	73.7417
2022.0000	73.5038
2021.0000	73.4483
2020.0000	73.3359
2019.0000	73.1114
2018.0000	73.041
2017.0000	72.9152
2016.0000	72.819
2015.0000	72.8159
2014.0000	72.5877
2013.0000	72.6705
2012.0000	72.6058
2011.0000	72.4414
2010.0000	72.4968
2009.0000	72.3428
2008.0000	72.3066
2007.0000	72.3181
2006.0000	72.2131
2005.0000	72.2876
2004.0000	72.2625
2003.0000	72.2383
2002.0000	72.343
2001.0000	72.2449
2000.0000	72.303
1999.0000	72.4208
1998.0000	72.4414
1997.0000	72.6379
1996.0000	72.6527
1995.0000	72.81
1994.0000	72.9844
1993.0000	72.9692
1992.0000	73.1911
1991.0000	73.3038
1990.0000	73.3832
1989.0000	73.6265
1988.0000	73.6305
1987.0000	73.9204
1986.0000	74.034
1985.0000	74.1675
1984.0000	74.4481
1983.0000	74.5426
1982.0000	74.746
1981.0000	75.0052
1980.0000	75.1171
1979.0000	75.4534
1978.0000	75.5706
1977.0000	75.838
1976.0000	76.1335
1975.0000	76.3243
1974.0000	76.5968
1973.0000	76.8098
1972.0000	77.0583
1971.0000	77.4007
1970.0000	77.5314
1969.0000	77.8862
1968.0000	78.1341
1967.0000	78.4097
1966.0000	78.7922
1965.0000	78.9809
1964.0000	79.3558
1963.0000	79.6667
1962.0000	79.9293
1961.0000	80.2831
1960.0000	80.4821
1959.0000	80.7981
1958.0000	81.0426
1957.0000	81.2866
1956.0000	81.5891
1955.0000	81.7975
1954.0000	82.1412
1953.0000	82.3537
1952.0000	82.5935
1951.0000	82.914
1950.0000	83.0742
1949.0000	83.3598
1948.0000	83.5447
1947.0000	83.8272
1946.0000	84.1363
1945.0000	84.3443
1944.0000	84.6002
1943.0000	84.7966
1942.0000	85.0273
1941.0000	85.2183
1940.0000	85.3303
1939.0000	85.5303
1938.0000	85.5838
1937.0000	85.6407
1936.0000	85.7622
1935.0000	85.7431
1934.0000	85.7748
1933.0000	85.7264
1932.0000	85.7203
1931.0000	85.6684
1930.0000	85.6459
1929.0000	85.6703
1928.0000	85.6038
1927.0000	85.5273
1926.0000	85.5094
1925.0000	85.5357
1924.0000	85.5248
1923.0000	85.3984
1922.0000	85.357
1921.0000	85.1758
1920.0000	85.1006
1919.0000	84.8476
1918.0000	84.5994
1917.0000	84.4361
1916.0000	84.0961
1915.0000	83.8792
1914.0000	83.587
1913.0000	83.3237
1912.0000	83.0886
1911.0000	82.7744
1910.0000	82.5248
1909.0000	82.2783
1908.0000	82.2069
1907.0000	81.9499
1906.0000	81.7315
1905.0000	81.5342
1904.0000	81.3269
1903.0000	81.0576
1902.0000	80.5947
1901.0000	80.2126
1900.0000	79.7933
1899.0000	79.4187
1898.0000	79.1507
1897.0000	78.9352
1896.0000	78.801
1895.0000	78.5574
1894.0000	78.3212
1893.0000	77.9863
1892.0000	77.6703
1891.0000	77.3648
1890.0000	76.9883
1889.0000	76.7028
1888.0000	76.4215
1887.0000	76.2543
1886.0000	76.0249
1885.0000	75.7123
1884.0000	75.4172
1883.0000	75.0824
1882.0000	74.8372
1881.0000	74.5693
1880.0000	74.3973
1879.0000	74.3389
1878.0000	74.3035
1877.0000	74.4552
1876.0000	74.5856
1875.0000	74.8065
1874.0000	74.789
1873.0000	74.5588
1872.0000	74.1358
1871.0000	73.6545
1870.0000	73.1273
1869.0000	72.7192
1868.0000	72.4883
1867.0000	72.3609
1866.0000	72.3527
1865.0000	72.3657
1864.0000	72.463
1863.0000	72.5234
1862.0000	72.4931
1861.0000	72.5011
1860.0000	72.508
1859.0000	72.5066
1858.0000	72.4656
1857.0000	72.4395
1856.0000	72.4749
1855.0000	72.5545
1854.0000	72.7372
1853.0000	72.9321
1852.0000	73.1596
1851.0000	73.385
1850.0000	73.4437
1849.0000	73.4308
1848.0000	73.4901
1847.0000	73.583
1846.0000	73.7582
1845.0000	73.9511
1844.0000	74.2162
1843.0000	74.4966
1842.0000	74.743
1841.0000	74.9003
1840.0000	74.9431
1839.0000	75.1034
1838.0000	75.3638
1837.0000	75.7622
1836.0000	76.1362
1835.0000	76.5419
1834.0000	77.0236
1833.0000	77.4167
1832.0000	77.8606
1831.0000	78.175
1830.0000	78.5614
1829.0000	78.985
1828.0000	79.3364
1827.0000	79.6238
1826.0000	79.8607
1825.0000	80.089
1824.0000	80.2398
1823.0000	80.3327
1822.0000	80.566
1821.0000	80.7834
1820.0000	81.1777
1819.0000	81.5344
1818.0000	81.9227
1817.0000	82.3588
1816.0000	82.748
1815.0000	83.1242
1814.0000	83.389
1813.0000	83.7077
1812.0000	83.9906
1811.0000	84.1655
1810.0000	84.3851
1809.0000	84.5927
1808.0000	84.8012
1807.0000	84.9811
1806.0000	85.154
1805.0000	85.3237
1804.0000	85.4611
1803.0000	85.6167
1802.0000	85.7332
1801.0000	85.8201
1800.0000	85.8641
1799.0000	85.86
1798.0000	85.8886
1797.0000	85.9073
1796.0000	85.9131
1795.0000	85.8352
1794.0000	85.7844
1793.0000	85.7586
1792.0000	85.6629
1791.0000	85.5391
1790.0000	85.3869
1789.0000	85.2714
1788.0000	85.0754
1787.0000	84.9227
1786.0000	84.6914
1785.0000	84.5151
1784.0000	84.2771
1783.0000	83.9876
1782.0000	83.7671
1781.0000	83.4665
1780.0000	83.1832
1779.0000	82.8426
1778.0000	82.5582
1777.0000	82.225
1776.0000	81.9024
1775.0000	81.5392
1774.0000	81.2294
1773.0000	80.8683
1772.0000	80.4904
1771.0000	80.1301
1770.0000	79.7712
1769.0000	79.4141
1768.0000	79.0301
1767.0000	78.6877
1766.0000	78.3318
1765.0000	77.9241
1764.0000	77.6002
1763.0000	77.2384
1762.0000	76.8772
1761.0000	76.5376
1760.0000	76.2171
1759.0000	75.868
1758.0000	75.5714
1757.0000	75.2432
1756.0000	74.9406
1755.0000	74.6713
1754.0000	74.3983
1753.0000	74.1507
1752.0000	73.9332
1751.0000	73.7167
1750.0000	73.4839
1749.0000	73.2904
1748.0000	73.0828
1747.0000	72.9205
1746.0000	72.7385
1745.0000	72.5728
1744.0000	72.4707
1743.0000	72.3554
1742.0000	72.2068
1741.0000	72.1264
1740.0000	72.0261
1739.0000	71.9895
1738.0000	71.9348
1737.0000	71.9178
1736.0000	71.9228
1735.0000	71.9701
1734.0000	72.0039
1733.0000	72.0515
1732.0000	72.0978
1731.0000	72.1759
1730.0000	72.2657
1729.0000	72.3648
1728.0000	72.4968
1727.0000	72.6341
1726.0000	72.8213
1725.0000	73.026
1724.0000	73.2289
1723.0000	73.4452
1722.0000	73.6956
1721.0000	73.9417
1720.0000	74.185
1719.0000	74.4238
1718.0000	74.7079
1717.0000	74.9623
1716.0000	75.2778
1715.0000	75.6152
1714.0000	75.9456
1713.0000	76.3003
1712.0000	76.654
1711.0000	77.0077
1710.0000	77.3976
1709.0000	77.7236
1708.0000	78.1039
1707.0000	78.4933
1706.0000	78.8959
1705.0000	79.2897
1704.0000	79.7178
1703.0000	80.1178
1702.0000	80.5193
1701.0000	80.8781
1700.0000	81.2729
1699.0000	81.6156
1698.0000	81.9509
1697.0000	82.295
1696.0000	82.598
1695.0000	82.9676
1694.0000	83.2927
1693.0000	83.6355
1692.0000	83.9716
1691.0000	84.2533
1690.0000	84.5413
1689.0000	84.8057
1688.0000	85.0105
1687.0000	85.1942
1686.0000	85.368
1685.0000	85.5162
1684.0000	85.6258
1683.0000	85.7557
1682.0000	85.843
1681.0000	85.8709
1680.0000	85.9595
1679.0000	85.9117
1678.0000	85.896
1677.0000	85.8031
1676.0000	85.7284
1675.0000	85.6441
1674.0000	85.4729
1673.0000	85.2907
1672.0000	85.1246
1671.0000	84.9649
1670.0000	84.6849
1669.0000	84.4695
1668.0000	84.2
1667.0000	83.9133
1666.0000	83.6177
1665.0000	83.2634
1664.0000	82.9838
1663.0000	82.6082
1662.0000	82.2376
1661.0000	81.8706
1660.0000	81.5061
1659.0000	81.1319
1658.0000	80.7376
1657.0000	80.3449
1656.0000	79.9477
1655.0000	79.5312
1654.0000	79.1261
1653.0000	78.7016
1652.0000	78.2664
1651.0000	77.8397
1650.0000	77.4443
1649.0000	77.0284
1648.0000	76.6155
1647.0000	76.2558
1646.0000	75.9018
1645.0000	75.5622
1644.0000	75.2375
1643.0000	74.9311
1642.0000	74.6759
1641.0000	74.3985
1640.0000	74.1275
1639.0000	73.83
1638.0000	73.5651
1637.0000	73.3518
1636.0000	73.1268
1635.0000	72.9404
1634.0000	72.7895
1633.0000	72.6645
1632.0000	72.5756
1631.0000	72.5111
1630.0000	72.4068
1629.0000	72.3355
1628.0000	72.2862
1627.0000	72.2875
1626.0000	72.2875
1625.0000	72.271
1624.0000	72.3402
1623.0000	72.3975
1622.0000	72.4902
1621.0000	72.6013
1620.0000	72.7557
1619.0000	72.9186
1618.0000	73.1205
1617.0000	73.3248
1616.0000	73.5549
1615.0000	73.7903
1614.0000	74.0401
1613.0000	74.3273
1612.0000	74.6224
1611.0000	74.9126
1610.0000	75.2514
1609.0000	75.6112
1608.0000	75.9785
1607.0000	76.3564
1606.0000	76.7532
1605.0000	77.1413
1604.0000	77.5524
1603.0000	77.9472
1602.0000	78.4077
1601.0000	78.9737
1600.0000	79.6496
1599.0000	80.4411
1598.0000	81.2011
1597.0000	81.8605
1596.0000	82.3972
1595.0000	82.756
1594.0000	82.9401
1593.0000	83.0595
1592.0000	83.1213
1591.0000	83.213
1590.0000	83.4442
1589.0000	83.7088
1588.0000	84.0115
1587.0000	84.308
1586.0000	84.5775
1585.0000	84.8061
1584.0000	85.0203
1583.0000	85.2235
1582.0000	85.4022
1581.0000	85.4847
1580.0000	85.5826
1579.0000	85.6777
1578.0000	85.6936
1577.0000	85.6592
1576.0000	85.5823
1575.0000	85.5095
1574.0000	85.4137
1573.0000	85.2409
1572.0000	85.0645
1571.0000	84.854
1570.0000	84.6325
1569.0000	84.3588
1568.0000	84.0587
1567.0000	83.7467
1566.0000	83.4584
1565.0000	83.0806
1564.0000	82.7063
1563.0000	82.3011
1562.0000	81.869
1561.0000	81.4403
1560.0000	80.9529
1559.0000	80.4901
1558.0000	80.0404
1557.0000	79.5706
1556.0000	79.1137
1555.0000	78.6459
1554.0000	78.2092
1553.0000	77.7617
1552.0000	77.316
1551.0000	76.8867
1550.0000	76.4522
1549.0000	76.0327
1548.0000	75.6243
1547.0000	75.2554
1546.0000	74.8854
1545.0000	74.5681
1544.0000	74.2246
1543.0000	73.9444
1542.0000	73.6348
1541.0000	73.3674
1540.0000	73.1555
1539.0000	72.939
1538.0000	72.6974
1537.0000	72.5604
1536.0000	72.4338
1535.0000	72.3367
1534.0000	72.2533
1533.0000	72.1873
1532.0000	72.1489
1531.0000	72.1681
1530.0000	72.1518
1529.0000	72.1703
1528.0000	72.2413
1527.0000	72.3421
1526.0000	72.4786
1525.0000	72.6405
1524.0000	72.8695
1523.0000	73.0897
1522.0000	73.3406
1521.0000	73.6249
1520.0000	73.9422
1519.0000	74.2848
1518.0000	74.6294
1517.0000	74.9874
1516.0000	75.4071
1515.0000	75.7964
1514.0000	76.2212
1513.0000	76.6073
1512.0000	77.0366
1511.0000	77.5018
1510.0000	77.9585
1509.0000	78.4196
1508.0000	78.8949
1507.0000	79.3797
1506.0000	79.8463
1505.0000	80.3696
1504.0000	80.8536
1503.0000	81.3421
1502.0000	81.7969
1501.0000	82.264
1500.0000	82.6772
1499.0000	83.121
1498.0000	83.5
1497.0000	83.8569
1496.0000	84.2202
1495.0000	84.5543
1494.0000	84.8688
1493.0000	85.1175
1492.0000	85.3564
1491.0000	85.5228
1490.0000	85.6787
1489.0000	85.7849
1488.0000	85.8083
1487.0000	85.8142
1486.0000	85.8035
1485.0000	85.7441
1484.0000	85.6409
1483.0000	85.4626
1482.0000	85.2787
1481.0000	85.0077
1480.0000	84.7168
1479.0000	84.4122
1478.0000	84.0202
1477.0000	83.6171
1476.0000	83.192
1475.0000	82.7581
1474.0000	82.2659
1473.0000	81.7683
1472.0000	81.2624
1471.0000	80.7684
1470.0000	80.2512
1469.0000	79.7596
1468.0000	79.2475
1467.0000	78.7064
1466.0000	78.2181
1465.0000	77.7214
1464.0000	77.2387
1463.0000	76.7467
1462.0000	76.2771
1461.0000	75.8488
1460.0000	75.3643
1459.0000	74.9197
