TITLE	13.1_NP_0
DATA TYPE	ULTRAVIOLET SPECTRUM
ORIGIN	JASCO
OWNER	
DATE	21/04/29
TIME	11:52:29
SPECTROMETER/DATA SYSTEM	
RESOLUTION	
DELTAX	-0.1
XUNITS	NANOMETERS
YUNITS	TRANSMITTANCE
FIRSTX	  850.0000
LASTX	  300.0000
NPOINTS	    5501
FIRSTY	    79.82161
MAXY	    83.77694
MINY	     0.00060
XYDATA
850.0000	79.8216
849.9000	79.7746
849.8000	79.7362
849.7000	79.69
849.6000	79.6373
849.5000	79.5788
849.4000	79.5259
849.3000	79.4595
849.2000	79.3974
849.1000	79.3271
849.0000	79.2564
848.9000	79.188
848.8000	79.1072
848.7000	79.0292
848.6000	78.9508
848.5000	78.8618
848.4000	78.7694
848.3000	78.68
848.2000	78.5899
848.1000	78.4921
848.0000	78.3946
847.9000	78.2952
847.8000	78.1956
847.7000	78.1013
847.6000	78.0007
847.5000	77.8958
847.4000	77.7786
847.3000	77.6698
847.2000	77.5608
847.1000	77.4486
847.0000	77.3316
846.9000	77.2118
846.8000	77.0933
846.7000	76.9766
846.6000	76.8464
846.5000	76.7211
846.4000	76.5992
846.3000	76.4723
846.2000	76.3397
846.1000	76.2165
846.0000	76.0867
845.9000	75.9542
845.8000	75.826
845.7000	75.6985
845.6000	75.572
845.5000	75.4405
845.4000	75.3083
845.3000	75.1794
845.2000	75.055
845.1000	74.9271
845.0000	74.7981
844.9000	74.6696
844.8000	74.5396
844.7000	74.4028
844.6000	74.271
844.5000	74.1291
844.4000	73.9997
844.3000	73.8644
844.2000	73.7391
844.1000	73.6082
844.0000	73.481
843.9000	73.3536
843.8000	73.2246
843.7000	73.1034
843.6000	72.9758
843.5000	72.8578
843.4000	72.7427
843.3000	72.6208
843.2000	72.502
843.1000	72.3826
843.0000	72.2721
842.9000	72.1575
842.8000	72.0512
842.7000	71.9441
842.6000	71.8321
842.5000	71.7249
842.4000	71.6219
842.3000	71.5191
842.2000	71.4203
842.1000	71.3234
842.0000	71.2213
841.9000	71.1262
841.8000	71.0308
841.7000	70.9368
841.6000	70.8467
841.5000	70.7651
841.4000	70.6808
841.3000	70.6066
841.2000	70.5239
841.1000	70.451
841.0000	70.3712
840.9000	70.2956
840.8000	70.225
840.7000	70.1626
840.6000	70.1
840.5000	70.0321
840.4000	69.9767
840.3000	69.9144
840.2000	69.8584
840.1000	69.8056
840.0000	69.7561
839.9000	69.7061
839.8000	69.6555
839.7000	69.6124
839.6000	69.5668
839.5000	69.5253
839.4000	69.4913
839.3000	69.4558
839.2000	69.4302
839.1000	69.4079
839.0000	69.3844
838.9000	69.3697
838.8000	69.3541
838.7000	69.3381
838.6000	69.3259
838.5000	69.3183
838.4000	69.3163
838.3000	69.3126
838.2000	69.3171
838.1000	69.3234
838.0000	69.3231
837.9000	69.3277
837.8000	69.3457
837.7000	69.3643
837.6000	69.3831
837.5000	69.4055
837.4000	69.4278
837.3000	69.4608
837.2000	69.4905
837.1000	69.5206
837.0000	69.5542
836.9000	69.5944
836.8000	69.6393
836.7000	69.6872
836.6000	69.7402
836.5000	69.7894
836.4000	69.8474
836.3000	69.9066
836.2000	69.9656
836.1000	70.0284
836.0000	70.0893
835.9000	70.1539
835.8000	70.2236
835.7000	70.288
835.6000	70.3633
835.5000	70.4432
835.4000	70.5273
835.3000	70.6187
835.2000	70.7054
835.1000	70.7966
835.0000	70.8823
834.9000	70.9706
834.8000	71.0713
834.7000	71.1719
834.6000	71.2694
834.5000	71.37
834.4000	71.474
834.3000	71.576
834.2000	71.6894
834.1000	71.7904
834.0000	71.9002
833.9000	72.0175
833.8000	72.1345
833.7000	72.2504
833.6000	72.3677
833.5000	72.4943
833.4000	72.6186
833.3000	72.7451
833.2000	72.868
833.1000	72.9938
833.0000	73.1222
832.9000	73.2495
832.8000	73.3746
832.7000	73.503
832.6000	73.6347
832.5000	73.7714
832.4000	73.9025
832.3000	74.0358
832.2000	74.1722
832.1000	74.3018
832.0000	74.4341
831.9000	74.5639
831.8000	74.7053
831.7000	74.8395
831.6000	74.977
831.5000	75.1102
831.4000	75.2451
831.3000	75.387
831.2000	75.5212
831.1000	75.6545
831.0000	75.7827
830.9000	75.9243
830.8000	76.0592
830.7000	76.1925
830.6000	76.3203
830.5000	76.4518
830.4000	76.5808
830.3000	76.707
830.2000	76.8366
830.1000	76.9652
830.0000	77.0881
829.9000	77.2157
829.8000	77.3376
829.7000	77.4643
829.6000	77.5947
829.5000	77.7197
829.4000	77.8378
829.3000	77.9574
829.2000	78.0748
829.1000	78.1885
829.0000	78.2979
828.9000	78.4069
828.8000	78.5155
828.7000	78.6264
828.6000	78.7262
828.5000	78.8264
828.4000	78.925
828.3000	79.0205
828.2000	79.1142
828.1000	79.2035
828.0000	79.293
827.9000	79.3767
827.8000	79.4612
827.7000	79.5369
827.6000	79.6105
827.5000	79.6852
827.4000	79.7597
827.3000	79.8249
827.2000	79.8905
827.1000	79.9457
827.0000	80.0061
826.9000	80.0566
826.8000	80.1109
826.7000	80.1534
826.6000	80.1964
826.5000	80.2297
826.4000	80.2604
826.3000	80.2893
826.2000	80.3202
826.1000	80.3383
826.0000	80.3527
825.9000	80.3691
825.8000	80.3815
825.7000	80.3895
825.6000	80.3962
825.5000	80.392
825.4000	80.3876
825.3000	80.3783
825.2000	80.369
825.1000	80.3543
825.0000	80.333
824.9000	80.3094
824.8000	80.2816
824.7000	80.254
824.6000	80.2225
824.5000	80.1886
824.4000	80.1508
824.3000	80.1072
824.2000	80.0608
824.1000	80.0102
824.0000	79.9599
823.9000	79.904
823.8000	79.8393
823.7000	79.777
823.6000	79.7086
823.5000	79.6398
823.4000	79.5676
823.3000	79.4943
823.2000	79.417
823.1000	79.335
823.0000	79.2514
822.9000	79.168
822.8000	79.0819
822.7000	78.9854
822.6000	78.8817
822.5000	78.7808
822.4000	78.6799
822.3000	78.5732
822.2000	78.4703
822.1000	78.3647
822.0000	78.25
821.9000	78.1406
821.8000	78.0246
821.7000	77.9024
821.6000	77.7814
821.5000	77.6636
821.4000	77.5378
821.3000	77.4135
821.2000	77.2836
821.1000	77.1466
821.0000	77.013
820.9000	76.8831
820.8000	76.7438
820.7000	76.6095
820.6000	76.4766
820.5000	76.3385
820.4000	76.2014
820.3000	76.0638
820.2000	75.9241
820.1000	75.7824
820.0000	75.6439
819.9000	75.5036
819.8000	75.3555
819.7000	75.2127
819.6000	75.0685
819.5000	74.9246
819.4000	74.7894
819.3000	74.6391
819.2000	74.493
819.1000	74.3551
819.0000	74.2091
818.9000	74.0679
818.8000	73.9243
818.7000	73.784
818.6000	73.6482
818.5000	73.5166
818.4000	73.3779
818.3000	73.2404
818.2000	73.1029
818.1000	72.9692
818.0000	72.8325
817.9000	72.7044
817.8000	72.5756
817.7000	72.4436
817.6000	72.318
817.5000	72.1941
817.4000	72.0639
817.3000	71.9423
817.2000	71.8174
817.1000	71.6986
817.0000	71.5806
816.9000	71.468
816.8000	71.3526
816.7000	71.2405
816.6000	71.1351
816.5000	71.0284
816.4000	70.9245
816.3000	70.8257
816.2000	70.7254
816.1000	70.634
816.0000	70.5425
815.9000	70.4506
815.8000	70.3651
815.7000	70.2805
815.6000	70.2006
815.5000	70.1212
815.4000	70.0435
815.3000	69.9666
815.2000	69.8991
815.1000	69.8287
815.0000	69.7661
814.9000	69.7073
814.8000	69.6529
814.7000	69.6038
814.6000	69.5535
814.5000	69.5086
814.4000	69.4627
814.3000	69.4223
814.2000	69.3843
814.1000	69.3477
814.0000	69.3208
813.9000	69.2901
813.8000	69.263
813.7000	69.2399
813.6000	69.2213
813.5000	69.2079
813.4000	69.1955
813.3000	69.1867
813.2000	69.1853
813.1000	69.1871
813.0000	69.1894
812.9000	69.1986
812.8000	69.209
812.7000	69.2252
812.6000	69.2368
812.5000	69.2538
812.4000	69.2775
812.3000	69.2985
812.2000	69.3313
812.1000	69.3634
812.0000	69.4002
811.9000	69.4408
811.8000	69.4779
811.7000	69.5149
811.6000	69.5667
811.5000	69.6156
811.4000	69.6671
811.3000	69.7271
811.2000	69.7899
811.1000	69.8517
811.0000	69.917
810.9000	69.9885
810.8000	70.0609
810.7000	70.1412
810.6000	70.2224
810.5000	70.3028
810.4000	70.3871
810.3000	70.4715
810.2000	70.5585
810.1000	70.6546
810.0000	70.7475
809.9000	70.8444
809.8000	70.9428
809.7000	71.0399
809.6000	71.1448
809.5000	71.2561
809.4000	71.3707
809.3000	71.4836
809.2000	71.6008
809.1000	71.717
809.0000	71.8352
808.9000	71.9571
808.8000	72.0753
808.7000	72.2001
808.6000	72.3325
808.5000	72.4678
808.4000	72.5913
808.3000	72.72
808.2000	72.8596
808.1000	72.9892
808.0000	73.1232
807.9000	73.26
807.8000	73.4038
807.7000	73.5433
807.6000	73.678
807.5000	73.8117
807.4000	73.9525
807.3000	74.0998
807.2000	74.2427
807.1000	74.3879
807.0000	74.537
806.9000	74.6768
806.8000	74.8234
806.7000	74.9627
806.6000	75.1096
806.5000	75.2607
806.4000	75.4013
806.3000	75.5401
806.2000	75.6795
806.1000	75.8222
806.0000	75.9602
805.9000	76.1054
805.8000	76.2415
805.7000	76.3788
805.6000	76.5172
805.5000	76.6523
805.4000	76.7895
805.3000	76.9157
805.2000	77.0527
805.1000	77.1803
805.0000	77.3031
804.9000	77.429
804.8000	77.5489
804.7000	77.6718
804.6000	77.787
804.5000	77.9081
804.4000	78.0299
804.3000	78.1442
804.2000	78.2595
804.1000	78.3637
804.0000	78.4675
803.9000	78.5726
803.8000	78.669
803.7000	78.77
803.6000	78.8602
803.5000	78.9499
803.4000	79.0361
803.3000	79.1159
803.2000	79.1952
803.1000	79.267
803.0000	79.3438
802.9000	79.4121
802.8000	79.4794
802.7000	79.5405
802.6000	79.5949
802.5000	79.6455
802.4000	79.6998
802.3000	79.7479
802.2000	79.7876
802.1000	79.8284
802.0000	79.8599
801.9000	79.8936
801.8000	79.9207
801.7000	79.9446
801.6000	79.9635
801.5000	79.9769
801.4000	79.9841
801.3000	79.9912
801.2000	79.9905
801.1000	79.9911
801.0000	79.98
800.9000	79.9682
800.8000	79.9547
800.7000	79.9323
800.6000	79.9109
800.5000	79.874
800.4000	79.845
800.3000	79.8115
800.2000	79.7736
800.1000	79.7319
800.0000	79.6845
799.9000	79.6381
799.8000	79.5771
799.7000	79.5145
799.6000	79.4528
799.5000	79.3798
799.4000	79.3115
799.3000	79.2392
799.2000	79.1596
799.1000	79.0808
799.0000	78.9955
798.9000	78.9045
798.8000	78.8092
798.7000	78.7101
798.6000	78.6094
798.5000	78.5081
798.4000	78.4066
798.3000	78.2952
798.2000	78.1951
798.1000	78.0766
798.0000	77.9616
797.9000	77.8368
797.8000	77.7187
797.7000	77.5977
797.6000	77.4702
797.5000	77.344
797.4000	77.2076
797.3000	77.0843
797.2000	76.9461
797.1000	76.8072
797.0000	76.665
796.9000	76.5218
796.8000	76.3805
796.7000	76.2358
796.6000	76.095
796.5000	75.9511
796.4000	75.8018
796.3000	75.6599
796.2000	75.516
796.1000	75.3684
796.0000	75.2215
795.9000	75.0717
795.8000	74.9231
795.7000	74.7783
795.6000	74.631
795.5000	74.4811
795.4000	74.3334
795.3000	74.1886
795.2000	74.0395
795.1000	73.8906
795.0000	73.7333
794.9000	73.5873
794.8000	73.4395
794.7000	73.2992
794.6000	73.1524
794.5000	73.0087
794.4000	72.8687
794.3000	72.7276
794.2000	72.591
794.1000	72.4503
794.0000	72.3188
793.9000	72.1906
793.8000	72.0626
793.7000	71.9394
793.6000	71.8156
793.5000	71.6921
793.4000	71.5712
793.3000	71.4547
793.2000	71.3359
793.1000	71.2184
793.0000	71.1028
792.9000	70.9956
792.8000	70.8856
792.7000	70.7774
792.6000	70.6773
792.5000	70.5774
792.4000	70.4826
792.3000	70.3923
792.2000	70.3034
792.1000	70.2138
792.0000	70.1306
791.9000	70.0544
791.8000	69.982
791.7000	69.9079
791.6000	69.8398
791.5000	69.7733
791.4000	69.7105
791.3000	69.6515
791.2000	69.593
791.1000	69.5405
791.0000	69.4926
790.9000	69.4445
790.8000	69.4036
790.7000	69.3616
790.6000	69.3274
790.5000	69.2923
790.4000	69.2639
790.3000	69.238
790.2000	69.2162
790.1000	69.1984
790.0000	69.1868
789.9000	69.1829
789.8000	69.1801
789.7000	69.1767
789.6000	69.1834
789.5000	69.187
789.4000	69.1925
789.3000	69.2076
789.2000	69.2267
789.1000	69.2511
789.0000	69.2735
788.9000	69.3009
788.8000	69.3354
788.7000	69.3704
788.6000	69.4115
788.5000	69.4559
788.4000	69.5017
788.3000	69.557
788.2000	69.6134
788.1000	69.6721
788.0000	69.7378
787.9000	69.8003
787.8000	69.8718
787.7000	69.9464
787.6000	70.0202
787.5000	70.1018
787.4000	70.185
787.3000	70.273
787.2000	70.3621
787.1000	70.4523
787.0000	70.5483
786.9000	70.6457
786.8000	70.7462
786.7000	70.8477
786.6000	70.9542
786.5000	71.0598
786.4000	71.1681
786.3000	71.2861
786.2000	71.4079
786.1000	71.5232
786.0000	71.6453
785.9000	71.7695
785.8000	71.895
785.7000	72.0242
785.6000	72.1514
785.5000	72.2868
785.4000	72.4204
785.3000	72.5535
785.2000	72.6897
785.1000	72.8202
785.0000	72.9599
784.9000	73.0976
784.8000	73.2381
784.7000	73.3868
784.6000	73.5279
784.5000	73.6733
784.4000	73.8135
784.3000	73.9581
784.2000	74.0975
784.1000	74.2454
784.0000	74.3957
783.9000	74.5414
783.8000	74.6877
783.7000	74.8386
783.6000	74.9891
783.5000	75.1337
783.4000	75.279
783.3000	75.4322
783.2000	75.5806
783.1000	75.7253
783.0000	75.8678
782.9000	76.0151
782.8000	76.1575
782.7000	76.2972
782.6000	76.4422
782.5000	76.5794
782.4000	76.7175
782.3000	76.8506
782.2000	76.9856
782.1000	77.1198
782.0000	77.2504
781.9000	77.3804
781.8000	77.5086
781.7000	77.6341
781.6000	77.7567
781.5000	77.8697
781.4000	77.9885
781.3000	78.0995
781.2000	78.2162
781.1000	78.3271
781.0000	78.4347
780.9000	78.5315
780.8000	78.6274
780.7000	78.7263
780.6000	78.8209
780.5000	78.9051
780.4000	78.9939
780.3000	79.0736
780.2000	79.1521
780.1000	79.2228
780.0000	79.2878
779.9000	79.3574
779.8000	79.4208
779.7000	79.4822
779.6000	79.5369
779.5000	79.589
779.4000	79.6348
779.3000	79.678
779.2000	79.7177
779.1000	79.7499
779.0000	79.7732
778.9000	79.795
778.8000	79.8144
778.7000	79.8278
778.6000	79.8329
778.5000	79.8404
778.4000	79.8442
778.3000	79.8409
778.2000	79.8274
778.1000	79.8158
778.0000	79.7977
777.9000	79.7759
777.8000	79.7534
777.7000	79.724
777.6000	79.6904
777.5000	79.6478
777.4000	79.602
777.3000	79.5573
777.2000	79.4977
777.1000	79.4406
777.0000	79.3814
776.9000	79.3199
776.8000	79.2546
776.7000	79.1798
776.6000	79.1015
776.5000	79.0206
776.4000	78.937
776.3000	78.8484
776.2000	78.7564
776.1000	78.6617
776.0000	78.5586
775.9000	78.4646
775.8000	78.3592
775.7000	78.2519
775.6000	78.1432
775.5000	78.0296
775.4000	77.9162
775.3000	77.7966
775.2000	77.6717
775.1000	77.5491
775.0000	77.4246
774.9000	77.2958
774.8000	77.1644
774.7000	77.0312
774.6000	76.8966
774.5000	76.7622
774.4000	76.6204
774.3000	76.4853
774.2000	76.345
774.1000	76.2015
774.0000	76.0613
773.9000	75.9206
773.8000	75.7748
773.7000	75.6267
773.6000	75.4786
773.5000	75.3307
773.4000	75.182
773.3000	75.0281
773.2000	74.8775
773.1000	74.7278
773.0000	74.5794
772.9000	74.4322
772.8000	74.2855
772.7000	74.1328
772.6000	73.986
772.5000	73.8391
772.4000	73.6923
772.3000	73.5483
772.2000	73.4028
772.1000	73.2614
772.0000	73.1173
771.9000	72.9802
771.8000	72.8447
771.7000	72.7051
771.6000	72.5711
771.5000	72.4382
771.4000	72.3077
771.3000	72.175
771.2000	72.0524
771.1000	71.9292
771.0000	71.8075
770.9000	71.6904
770.8000	71.5705
770.7000	71.453
770.6000	71.3416
770.5000	71.227
770.4000	71.1215
770.3000	71.0194
770.2000	70.9189
770.1000	70.8224
770.0000	70.7286
769.9000	70.6365
769.8000	70.5445
769.7000	70.4613
769.6000	70.3817
769.5000	70.2993
769.4000	70.2252
769.3000	70.1547
769.2000	70.0875
769.1000	70.0257
769.0000	69.9647
768.9000	69.9085
768.8000	69.8614
768.7000	69.8132
768.6000	69.7692
768.5000	69.7333
768.4000	69.6973
768.3000	69.6638
768.2000	69.6347
768.1000	69.614
768.0000	69.5901
767.9000	69.5732
767.8000	69.5625
767.7000	69.5542
767.6000	69.552
767.5000	69.5567
767.4000	69.5637
767.3000	69.5793
767.2000	69.592
767.1000	69.6071
767.0000	69.6273
766.9000	69.6516
766.8000	69.6811
766.7000	69.7149
766.6000	69.7549
766.5000	69.7938
766.4000	69.8375
766.3000	69.8877
766.2000	69.9436
766.1000	70.0018
766.0000	70.0647
765.9000	70.127
765.8000	70.1968
765.7000	70.2681
765.6000	70.3425
765.5000	70.4208
765.4000	70.5062
765.3000	70.5908
765.2000	70.6835
765.1000	70.7776
765.0000	70.8749
764.9000	70.976
764.8000	71.082
764.7000	71.1871
764.6000	71.2964
764.5000	71.4046
764.4000	71.5209
764.3000	71.6379
764.2000	71.7599
764.1000	71.8823
764.0000	72.0093
763.9000	72.1395
763.8000	72.2726
763.7000	72.411
763.6000	72.5485
763.5000	72.6846
763.4000	72.8288
763.3000	72.971
763.2000	73.1189
763.1000	73.2668
763.0000	73.4142
762.9000	73.5627
762.8000	73.7118
762.7000	73.8662
762.6000	74.0184
762.5000	74.1696
762.4000	74.3215
762.3000	74.4789
762.2000	74.6296
762.1000	74.786
762.0000	74.9396
761.9000	75.097
761.8000	75.2526
761.7000	75.4048
761.6000	75.553
761.5000	75.7063
761.4000	75.8544
761.3000	76.0071
761.2000	76.1599
761.1000	76.3092
761.0000	76.4544
760.9000	76.6007
760.8000	76.7458
760.7000	76.8867
760.6000	77.0289
760.5000	77.1659
760.4000	77.3035
760.3000	77.4424
760.2000	77.5715
760.1000	77.7
760.0000	77.8276
759.9000	77.9549
759.8000	78.0757
759.7000	78.1915
759.6000	78.3074
759.5000	78.4189
759.4000	78.5297
759.3000	78.6376
759.2000	78.7424
759.1000	78.8377
759.0000	78.9363
758.9000	79.0323
758.8000	79.1227
758.7000	79.205
758.6000	79.2822
758.5000	79.3617
758.4000	79.4407
758.3000	79.5095
758.2000	79.5787
758.1000	79.6362
758.0000	79.6903
757.9000	79.7421
757.8000	79.7893
757.7000	79.8321
757.6000	79.871
757.5000	79.9043
757.4000	79.9292
757.3000	79.9486
757.2000	79.965
757.1000	79.9772
757.0000	79.9852
756.9000	79.9921
756.8000	79.9875
756.7000	79.9778
756.6000	79.9642
756.5000	79.951
756.4000	79.9293
756.3000	79.902
756.2000	79.8716
756.1000	79.8371
756.0000	79.7964
755.9000	79.7509
755.8000	79.7027
755.7000	79.6451
755.6000	79.5853
755.5000	79.522
755.4000	79.4574
755.3000	79.3816
755.2000	79.3003
755.1000	79.2173
755.0000	79.1305
754.9000	79.0431
754.8000	78.9491
754.7000	78.8535
754.6000	78.7514
754.5000	78.6449
754.4000	78.5336
754.3000	78.4217
754.2000	78.3111
754.1000	78.1981
754.0000	78.0772
753.9000	77.953
753.8000	77.828
753.7000	77.6975
753.6000	77.5691
753.5000	77.4371
753.4000	77.3038
753.3000	77.1672
753.2000	77.0317
753.1000	76.8925
753.0000	76.7505
752.9000	76.6034
752.8000	76.4591
752.7000	76.3148
752.6000	76.1647
752.5000	76.0163
752.4000	75.866
752.3000	75.7171
752.2000	75.5645
752.1000	75.4123
752.0000	75.2633
751.9000	75.1126
751.8000	74.9611
751.7000	74.8152
751.6000	74.6678
751.5000	74.5185
751.4000	74.3711
751.3000	74.224
751.2000	74.0771
751.1000	73.9331
751.0000	73.7867
750.9000	73.6458
750.8000	73.5048
750.7000	73.3655
750.6000	73.2266
750.5000	73.091
750.4000	72.9575
750.3000	72.8262
750.2000	72.6956
750.1000	72.5692
750.0000	72.442
749.9000	72.3194
749.8000	72.1997
749.7000	72.0856
749.6000	71.9709
749.5000	71.8594
749.4000	71.7533
749.3000	71.6482
749.2000	71.5493
749.1000	71.4529
749.0000	71.3582
748.9000	71.273
748.8000	71.1886
748.7000	71.1086
748.6000	71.0281
748.5000	70.9501
748.4000	70.8764
748.3000	70.8111
748.2000	70.7448
748.1000	70.6887
748.0000	70.6381
747.9000	70.5878
747.8000	70.5466
747.7000	70.5039
747.6000	70.4699
747.5000	70.4407
747.4000	70.4135
747.3000	70.3948
747.2000	70.3758
747.1000	70.3596
747.0000	70.3524
746.9000	70.3422
746.8000	70.3427
746.7000	70.3493
746.6000	70.3562
746.5000	70.3685
746.4000	70.3855
746.3000	70.4093
746.2000	70.4322
746.1000	70.4673
746.0000	70.5007
745.9000	70.537
745.8000	70.5872
745.7000	70.6352
745.6000	70.6894
745.5000	70.7471
745.4000	70.8105
745.3000	70.8795
745.2000	70.952
745.1000	71.0208
745.0000	71.0984
744.9000	71.1795
744.8000	71.2635
744.7000	71.3567
744.6000	71.4453
744.5000	71.5381
744.4000	71.6354
744.3000	71.7384
744.2000	71.8482
744.1000	71.9581
744.0000	72.0716
743.9000	72.1912
743.8000	72.3107
743.7000	72.4412
743.6000	72.5666
743.5000	72.6934
743.4000	72.8282
743.3000	72.9645
743.2000	73.1024
743.1000	73.2429
743.0000	73.3838
742.9000	73.5219
742.8000	73.6695
742.7000	73.8196
742.6000	73.9655
742.5000	74.1156
742.4000	74.268
742.3000	74.4226
742.2000	74.5788
742.1000	74.7352
742.0000	74.889
741.9000	75.0499
741.8000	75.2098
741.7000	75.3688
741.6000	75.5265
741.5000	75.6824
741.4000	75.8428
741.3000	76.0011
741.2000	76.1556
741.1000	76.3137
741.0000	76.4686
740.9000	76.622
740.8000	76.7745
740.7000	76.928
740.6000	77.0802
740.5000	77.2263
740.4000	77.371
740.3000	77.5156
740.2000	77.6591
740.1000	77.7953
740.0000	77.9102
739.9000	78.044
739.8000	78.1743
739.7000	78.3017
739.6000	78.4306
739.5000	78.552
739.4000	78.6731
739.3000	78.7927
739.2000	78.9074
739.1000	79.0173
739.0000	79.1232
738.9000	79.2275
738.8000	79.3301
738.7000	79.4217
738.6000	79.5119
738.5000	79.5993
738.4000	79.6808
738.3000	79.7594
738.2000	79.8306
738.1000	79.902
738.0000	79.966
737.9000	80.0268
737.8000	80.0848
737.7000	80.1367
737.6000	80.1808
737.5000	80.2215
737.4000	80.2554
737.3000	80.2828
737.2000	80.3095
737.1000	80.3328
737.0000	80.3442
736.9000	80.3522
736.8000	80.3531
736.7000	80.3549
736.6000	80.3545
736.5000	80.3455
736.4000	80.3279
736.3000	80.3054
736.2000	80.2816
736.1000	80.2469
736.0000	80.2092
735.9000	80.1663
735.8000	80.1207
735.7000	80.0725
735.6000	80.0175
735.5000	79.9593
735.4000	79.8965
735.3000	79.8243
735.2000	79.7501
735.1000	79.6719
735.0000	79.5852
734.9000	79.4943
734.8000	79.4049
734.7000	79.3049
734.6000	79.2032
734.5000	79.0991
734.4000	78.9937
734.3000	78.883
734.2000	78.7687
734.1000	78.6543
734.0000	78.5309
733.9000	78.404
733.8000	78.2815
733.7000	78.1513
733.6000	78.0226
733.5000	77.8868
