TITLE	12.1_NP_0
DATA TYPE	ULTRAVIOLET SPECTRUM
ORIGIN	JASCO
OWNER	
DATE	21/05/03
TIME	16:19:54
SPECTROMETER/DATA SYSTEM	
RESOLUTION	
DELTAX	-0.1
XUNITS	NANOMETERS
YUNITS	TRANSMITTANCE
FIRSTX	  850.0000
LASTX	  250.0000
NPOINTS	    6001
FIRSTY	    77.93438
MAXY	    81.61069
MINY	     0.00037
XYDATA
850.0000	77.9344
849.9000	77.8161
849.8000	77.6779
849.7000	77.537
849.6000	77.4033
849.5000	77.2716
849.4000	77.1207
849.3000	76.9772
849.2000	76.8373
849.1000	76.6874
849.0000	76.5498
848.9000	76.4022
848.8000	76.2471
848.7000	76.0972
848.6000	75.9491
848.5000	75.7963
848.4000	75.6439
848.3000	75.4879
848.2000	75.3408
848.1000	75.1896
848.0000	75.0465
847.9000	74.8977
847.8000	74.7591
847.7000	74.6155
847.6000	74.4586
847.5000	74.3118
847.4000	74.1621
847.3000	74.023
847.2000	73.8813
847.1000	73.7468
847.0000	73.6091
846.9000	73.4692
846.8000	73.3325
846.7000	73.1986
846.6000	73.0605
846.5000	72.9303
846.4000	72.7898
846.3000	72.6583
846.2000	72.5304
846.1000	72.3933
846.0000	72.2702
845.9000	72.1331
845.8000	72.002
845.7000	71.8776
845.6000	71.7484
845.5000	71.6202
845.4000	71.4948
845.3000	71.3707
845.2000	71.2508
845.1000	71.1331
845.0000	71.0212
844.9000	70.9059
844.8000	70.7944
844.7000	70.6884
844.6000	70.5697
844.5000	70.4687
844.4000	70.3609
844.3000	70.2738
844.2000	70.1808
844.1000	70.0842
844.0000	69.9967
843.9000	69.9073
843.8000	69.8271
843.7000	69.7441
843.6000	69.6627
843.5000	69.582
843.4000	69.5086
843.3000	69.4321
843.2000	69.3646
843.1000	69.2924
843.0000	69.2376
842.9000	69.1782
842.8000	69.124
842.7000	69.0644
842.6000	69.0187
842.5000	68.9656
842.4000	68.9201
842.3000	68.8861
842.2000	68.846
842.1000	68.8155
842.0000	68.7826
841.9000	68.7522
841.8000	68.7267
841.7000	68.7076
841.6000	68.6878
841.5000	68.6728
841.4000	68.6585
841.3000	68.6484
841.2000	68.6455
841.1000	68.6413
841.0000	68.6368
840.9000	68.6438
840.8000	68.6468
840.7000	68.6522
840.6000	68.6694
840.5000	68.683
840.4000	68.709
840.3000	68.7367
840.2000	68.7678
840.1000	68.7936
840.0000	68.8265
839.9000	68.8678
839.8000	68.9039
839.7000	68.9426
839.6000	68.9842
839.5000	69.0346
839.4000	69.0815
839.3000	69.1362
839.2000	69.1904
839.1000	69.2503
839.0000	69.3071
838.9000	69.3674
838.8000	69.4283
838.7000	69.4952
838.6000	69.558
838.5000	69.6397
838.4000	69.7172
838.3000	69.7944
838.2000	69.8813
838.1000	69.9669
838.0000	70.0545
837.9000	70.1369
837.8000	70.2351
837.7000	70.333
837.6000	70.445
837.5000	70.5507
837.4000	70.6499
837.3000	70.7651
837.2000	70.8763
837.1000	70.9888
837.0000	71.1082
836.9000	71.2201
836.8000	71.3411
836.7000	71.4626
836.6000	71.5865
836.5000	71.7094
836.4000	71.8327
836.3000	71.9705
836.2000	72.1019
836.1000	72.239
836.0000	72.3677
835.9000	72.5027
835.8000	72.6479
835.7000	72.7814
835.6000	72.918
835.5000	73.0574
835.4000	73.2013
835.3000	73.3488
835.2000	73.5032
835.1000	73.6583
835.0000	73.8024
834.9000	73.9544
834.8000	74.1124
834.7000	74.2589
834.6000	74.412
834.5000	74.5646
834.4000	74.7164
834.3000	74.8624
834.2000	75.0149
834.1000	75.1695
834.0000	75.338
833.9000	75.4926
833.8000	75.64
833.7000	75.7974
833.6000	75.9408
833.5000	76.0836
833.4000	76.2363
833.3000	76.3868
833.2000	76.537
833.1000	76.6826
833.0000	76.8235
832.9000	76.9586
832.8000	77.101
832.7000	77.2471
832.6000	77.3852
832.5000	77.5191
832.4000	77.6454
832.3000	77.7767
832.2000	77.9129
832.1000	78.0328
832.0000	78.1569
831.9000	78.2795
831.8000	78.4007
831.7000	78.5153
831.6000	78.6256
831.5000	78.7376
831.4000	78.8509
831.3000	78.9594
831.2000	79.0602
831.1000	79.1569
831.0000	79.2591
830.9000	79.3666
830.8000	79.4598
830.7000	79.5557
830.6000	79.6367
830.5000	79.7233
830.4000	79.8041
830.3000	79.8778
830.2000	79.9522
830.1000	80.0277
830.0000	80.093
829.9000	80.1589
829.8000	80.2185
829.7000	80.2762
829.6000	80.3282
829.5000	80.3723
829.4000	80.4185
829.3000	80.4506
829.2000	80.4874
829.1000	80.5252
829.0000	80.558
828.9000	80.5824
828.8000	80.5994
828.7000	80.6203
828.6000	80.6334
828.5000	80.6414
828.4000	80.6439
828.3000	80.6423
828.2000	80.6394
828.1000	80.6336
828.0000	80.6252
827.9000	80.6184
827.8000	80.5912
827.7000	80.5655
827.6000	80.531
827.5000	80.4832
827.4000	80.4332
827.3000	80.3955
827.2000	80.3568
827.1000	80.3066
827.0000	80.2509
826.9000	80.1852
826.8000	80.1251
826.7000	80.0595
826.6000	79.9819
826.5000	79.9072
826.4000	79.8314
826.3000	79.747
826.2000	79.6523
826.1000	79.5535
826.0000	79.4574
825.9000	79.3635
825.8000	79.2725
825.7000	79.1568
825.6000	79.047
825.5000	78.9235
825.4000	78.8104
825.3000	78.7003
825.2000	78.5803
825.1000	78.4556
825.0000	78.324
824.9000	78.1847
824.8000	78.0444
824.7000	77.9111
824.6000	77.788
824.5000	77.6518
824.4000	77.5129
824.3000	77.374
824.2000	77.224
824.1000	77.0792
824.0000	76.9348
823.9000	76.7952
823.8000	76.6442
823.7000	76.4863
823.6000	76.3308
823.5000	76.1733
823.4000	76.0213
823.3000	75.8716
823.2000	75.7145
823.1000	75.5518
823.0000	75.3844
822.9000	75.2303
822.8000	75.0683
822.7000	74.9093
822.6000	74.7534
822.5000	74.602
822.4000	74.4383
822.3000	74.2771
822.2000	74.1143
822.1000	73.9562
822.0000	73.7955
821.9000	73.6414
821.8000	73.48
821.7000	73.3239
821.6000	73.166
821.5000	73.015
821.4000	72.8635
821.3000	72.7063
821.2000	72.5564
821.1000	72.4027
821.0000	72.2465
820.9000	72.0932
820.8000	71.9419
820.7000	71.8046
820.6000	71.6517
820.5000	71.506
820.4000	71.3627
820.3000	71.2176
820.2000	71.086
820.1000	70.9485
820.0000	70.8199
819.9000	70.6839
819.8000	70.5494
819.7000	70.4256
819.6000	70.2978
819.5000	70.1702
819.4000	70.0547
819.3000	69.9292
819.2000	69.8189
819.1000	69.6936
819.0000	69.5885
818.9000	69.4857
818.8000	69.384
818.7000	69.2875
818.6000	69.1826
818.5000	69.0903
818.4000	69.0022
818.3000	68.9183
818.2000	68.839
818.1000	68.7497
818.0000	68.6742
817.9000	68.5986
817.8000	68.53
817.7000	68.469
817.6000	68.4031
817.5000	68.3457
817.4000	68.2914
817.3000	68.2346
817.2000	68.187
817.1000	68.1432
817.0000	68.1111
816.9000	68.0772
816.8000	68.0331
816.7000	68.0009
816.6000	67.9725
816.5000	67.9574
816.4000	67.9387
816.3000	67.9256
816.2000	67.9121
816.1000	67.9063
816.0000	67.9003
815.9000	67.8974
815.8000	67.8983
815.7000	67.9121
815.6000	67.925
815.5000	67.9383
815.4000	67.9504
815.3000	67.9615
815.2000	67.9926
815.1000	68.0255
815.0000	68.0582
814.9000	68.0959
814.8000	68.138
814.7000	68.1841
814.6000	68.2295
814.5000	68.2778
814.4000	68.3338
814.3000	68.3975
814.2000	68.4577
814.1000	68.5186
814.0000	68.5895
813.9000	68.6582
813.8000	68.7336
813.7000	68.8155
813.6000	68.8926
813.5000	68.9739
813.4000	69.0599
813.3000	69.1481
813.2000	69.239
813.1000	69.3399
813.0000	69.4386
812.9000	69.5474
812.8000	69.6542
812.7000	69.7615
812.6000	69.879
812.5000	69.9937
812.4000	70.1047
812.3000	70.224
812.2000	70.355
812.1000	70.4805
812.0000	70.6127
811.9000	70.7392
811.8000	70.8743
811.7000	71.0095
811.6000	71.1447
811.5000	71.2817
811.4000	71.4275
811.3000	71.5672
811.2000	71.7118
811.1000	71.8613
811.0000	72.0127
810.9000	72.158
810.8000	72.3082
810.7000	72.4632
810.6000	72.6186
810.5000	72.775
810.4000	72.9248
810.3000	73.0786
810.2000	73.2349
810.1000	73.3915
810.0000	73.5548
809.9000	73.7101
809.8000	73.8747
809.7000	74.0327
809.6000	74.1948
809.5000	74.3555
809.4000	74.5153
809.3000	74.6863
809.2000	74.8511
809.1000	75.0221
809.0000	75.1764
808.9000	75.3348
808.8000	75.505
808.7000	75.6713
808.6000	75.8314
808.5000	75.9953
808.4000	76.159
808.3000	76.3166
808.2000	76.468
808.1000	76.6249
808.0000	76.7777
807.9000	76.9248
807.8000	77.0706
807.7000	77.214
807.6000	77.3626
807.5000	77.4973
807.4000	77.6359
807.3000	77.7782
807.2000	77.9075
807.1000	78.0373
807.0000	78.1682
806.9000	78.2935
806.8000	78.4091
806.7000	78.5281
806.6000	78.6461
806.5000	78.7544
806.4000	78.8579
806.3000	78.9673
806.2000	79.0668
806.1000	79.1681
806.0000	79.259
805.9000	79.348
805.8000	79.4297
805.7000	79.501
805.6000	79.5743
805.5000	79.6486
805.4000	79.7173
805.3000	79.7773
805.2000	79.8355
805.1000	79.8908
805.0000	79.9387
804.9000	79.9824
804.8000	80.0294
804.7000	80.0606
804.6000	80.0879
804.5000	80.1088
804.4000	80.1247
804.3000	80.1422
804.2000	80.1528
804.1000	80.1606
804.0000	80.1602
803.9000	80.154
803.8000	80.1416
803.7000	80.1245
803.6000	80.104
803.5000	80.0773
803.4000	80.045
803.3000	80.0089
803.2000	79.9636
803.1000	79.917
803.0000	79.8708
802.9000	79.8105
802.8000	79.757
802.7000	79.6865
802.6000	79.6215
802.5000	79.543
802.4000	79.4692
802.3000	79.3842
802.2000	79.2957
802.1000	79.2145
802.0000	79.1195
801.9000	79.0231
801.8000	78.9187
801.7000	78.8148
801.6000	78.7067
801.5000	78.5926
801.4000	78.4746
801.3000	78.3605
801.2000	78.2364
801.1000	78.1104
801.0000	77.9784
800.9000	77.8489
800.8000	77.7111
800.7000	77.5734
800.6000	77.4277
800.5000	77.2755
800.4000	77.1264
800.3000	76.9744
800.2000	76.8179
800.1000	76.6547
800.0000	76.4912
799.9000	76.3306
799.8000	76.1675
799.7000	75.9982
799.6000	75.8316
799.5000	75.6639
799.4000	75.4858
799.3000	75.3205
799.2000	75.1472
799.1000	74.9743
799.0000	74.8075
798.9000	74.6326
798.8000	74.4592
798.7000	74.2846
798.6000	74.1239
798.5000	73.9523
798.4000	73.7838
798.3000	73.6106
798.2000	73.4392
798.1000	73.2665
798.0000	73.0899
797.9000	72.9193
797.8000	72.7612
797.7000	72.5904
797.6000	72.4302
797.5000	72.2676
797.4000	72.0975
797.3000	71.9386
797.2000	71.7866
797.1000	71.6294
797.0000	71.4622
796.9000	71.3133
796.8000	71.1617
796.7000	71.0185
796.6000	70.8681
796.5000	70.726
796.4000	70.5835
796.3000	70.4462
796.2000	70.3041
796.1000	70.1681
796.0000	70.0337
795.9000	69.9019
795.8000	69.7805
795.7000	69.6518
795.6000	69.5224
795.5000	69.3994
795.4000	69.2848
795.3000	69.171
795.2000	69.0623
795.1000	68.9497
795.0000	68.8535
794.9000	68.7497
794.8000	68.6576
794.7000	68.5649
794.6000	68.4777
794.5000	68.397
794.4000	68.3137
794.3000	68.2376
794.2000	68.1657
794.1000	68.1011
794.0000	68.0438
793.9000	67.9893
793.8000	67.9311
793.7000	67.8766
793.6000	67.8311
793.5000	67.7851
793.4000	67.7393
793.3000	67.7052
793.2000	67.6773
793.1000	67.6524
793.0000	67.6289
792.9000	67.6082
792.8000	67.5958
792.7000	67.59
792.6000	67.5827
792.5000	67.5769
792.4000	67.5751
792.3000	67.5788
792.2000	67.588
792.1000	67.6041
792.0000	67.6228
791.9000	67.6541
791.8000	67.6886
791.7000	67.7277
791.6000	67.7572
791.5000	67.7933
791.4000	67.8386
791.3000	67.8894
791.2000	67.9369
791.1000	67.9907
791.0000	68.0505
790.9000	68.1147
790.8000	68.1853
790.7000	68.264
790.6000	68.3428
790.5000	68.429
790.4000	68.5148
790.3000	68.5989
790.2000	68.6882
790.1000	68.7807
790.0000	68.8859
789.9000	68.9925
789.8000	69.1008
789.7000	69.2084
789.6000	69.3296
789.5000	69.4495
789.4000	69.5702
789.3000	69.6971
789.2000	69.8229
789.1000	69.9497
789.0000	70.088
788.9000	70.2229
788.8000	70.3594
788.7000	70.4983
788.6000	70.6457
788.5000	70.7943
788.4000	70.9398
788.3000	71.0917
788.2000	71.2486
788.1000	71.4096
788.0000	71.5669
787.9000	71.7253
787.8000	71.888
787.7000	72.048
787.6000	72.2144
787.5000	72.3793
787.4000	72.5413
787.3000	72.7104
787.2000	72.876
787.1000	73.0493
787.0000	73.2165
786.9000	73.3845
786.8000	73.5562
786.7000	73.7245
786.6000	73.8973
786.5000	74.0677
786.4000	74.2346
786.3000	74.4016
786.2000	74.5715
786.1000	74.7433
786.0000	74.9089
785.9000	75.0861
785.8000	75.2613
785.7000	75.4295
785.6000	75.6014
785.5000	75.768
785.4000	75.9306
785.3000	76.0962
785.2000	76.2617
785.1000	76.4222
785.0000	76.5803
784.9000	76.7256
784.8000	76.8822
784.7000	77.0388
784.6000	77.1867
784.5000	77.3362
784.4000	77.482
784.3000	77.6155
784.2000	77.7467
784.1000	77.8738
784.0000	78.0044
783.9000	78.1342
783.8000	78.2551
783.7000	78.3701
783.6000	78.4835
783.5000	78.5942
783.4000	78.7027
783.3000	78.8131
783.2000	78.9041
783.1000	78.9937
783.0000	79.0853
782.9000	79.1679
782.8000	79.245
782.7000	79.3141
782.6000	79.383
782.5000	79.4523
782.4000	79.511
782.3000	79.5631
782.2000	79.6139
782.1000	79.661
782.0000	79.6979
781.9000	79.7319
781.8000	79.7558
781.7000	79.7784
781.6000	79.8032
781.5000	79.816
781.4000	79.8171
781.3000	79.8207
781.2000	79.8197
781.1000	79.8147
781.0000	79.7971
780.9000	79.7721
780.8000	79.7446
780.7000	79.7144
780.6000	79.675
780.5000	79.633
780.4000	79.5884
780.3000	79.535
780.2000	79.4761
780.1000	79.4116
780.0000	79.3398
779.9000	79.2708
779.8000	79.1974
779.7000	79.1093
779.6000	79.0154
779.5000	78.9196
779.4000	78.8317
779.3000	78.7306
779.2000	78.6252
779.1000	78.5154
779.0000	78.4104
778.9000	78.2901
778.8000	78.1595
778.7000	78.0319
778.6000	77.9031
778.5000	77.7654
778.4000	77.6307
778.3000	77.4845
778.2000	77.3373
778.1000	77.198
778.0000	77.0495
777.9000	76.8976
777.8000	76.7391
777.7000	76.5827
777.6000	76.4221
777.5000	76.2542
777.4000	76.0796
777.3000	75.9113
777.2000	75.7458
777.1000	75.5806
777.0000	75.4028
776.9000	75.2353
776.8000	75.0607
776.7000	74.8883
776.6000	74.7201
776.5000	74.5405
776.4000	74.3645
776.3000	74.194
776.2000	74.014
776.1000	73.8369
776.0000	73.6577
775.9000	73.4837
775.8000	73.3115
775.7000	73.1402
775.6000	72.971
775.5000	72.7897
775.4000	72.6216
775.3000	72.4509
775.2000	72.2801
775.1000	72.1123
775.0000	71.9375
774.9000	71.7707
774.8000	71.6045
774.7000	71.438
774.6000	71.2778
774.5000	71.1196
774.4000	70.9643
774.3000	70.8084
774.2000	70.6584
774.1000	70.5062
774.0000	70.3593
773.9000	70.2195
773.8000	70.0784
773.7000	69.9423
773.6000	69.8099
773.5000	69.6812
773.4000	69.5506
773.3000	69.4287
773.2000	69.3088
773.1000	69.1903
773.0000	69.077
772.9000	68.9677
772.8000	68.8618
772.7000	68.7605
772.6000	68.6571
772.5000	68.5652
772.4000	68.4725
772.3000	68.386
772.2000	68.2997
772.1000	68.2198
772.0000	68.1477
771.9000	68.0731
771.8000	68.0131
771.7000	67.9488
771.6000	67.8964
771.5000	67.8456
771.4000	67.7966
771.3000	67.7517
771.2000	67.7122
771.1000	67.6806
771.0000	67.6567
770.9000	67.6279
770.8000	67.6071
770.7000	67.589
770.6000	67.5808
770.5000	67.5742
770.4000	67.5719
770.3000	67.5703
770.2000	67.573
770.1000	67.5786
770.0000	67.5927
769.9000	67.6121
769.8000	67.6383
769.7000	67.6704
769.6000	67.7071
769.5000	67.7444
769.4000	67.7817
769.3000	67.833
769.2000	67.8827
769.1000	67.9436
769.0000	68.0081
768.9000	68.0724
768.8000	68.1454
768.7000	68.2266
768.6000	68.308
768.5000	68.4034
768.4000	68.4918
768.3000	68.5911
768.2000	68.6896
768.1000	68.7883
768.0000	68.8899
767.9000	68.9986
767.8000	69.1193
767.7000	69.2381
767.6000	69.3613
767.5000	69.4856
767.4000	69.6139
767.3000	69.749
767.2000	69.8789
767.1000	70.0136
767.0000	70.1576
766.9000	70.2992
766.8000	70.4453
766.7000	70.5852
766.6000	70.743
766.5000	70.8988
766.4000	71.0588
766.3000	71.2191
766.2000	71.3789
766.1000	71.5439
766.0000	71.7108
765.9000	71.8793
765.8000	72.0471
765.7000	72.2227
765.6000	72.3969
765.5000	72.5738
765.4000	72.7536
765.3000	72.9356
765.2000	73.1174
765.1000	73.2997
765.0000	73.4808
764.9000	73.6656
764.8000	73.8473
764.7000	74.0258
764.6000	74.211
764.5000	74.3891
764.4000	74.5754
764.3000	74.759
764.2000	74.9405
764.1000	75.1138
764.0000	75.2944
763.9000	75.4729
763.8000	75.6476
763.7000	75.8162
763.6000	75.9914
763.5000	76.1632
763.4000	76.3266
763.3000	76.4945
763.2000	76.6598
763.1000	76.8237
763.0000	76.9799
762.9000	77.1376
762.8000	77.2911
762.7000	77.4424
762.6000	77.5894
762.5000	77.7379
762.4000	77.8789
762.3000	78.0156
762.2000	78.1464
762.1000	78.2769
762.0000	78.3992
761.9000	78.5217
761.8000	78.6422
761.7000	78.7472
761.6000	78.8535
761.5000	78.9613
761.4000	79.0541
761.3000	79.1492
761.2000	79.2325
761.1000	79.3091
761.0000	79.3856
760.9000	79.4508
760.8000	79.5136
760.7000	79.5768
760.6000	79.6315
760.5000	79.6769
760.4000	79.7136
760.3000	79.751
760.2000	79.7764
760.1000	79.8018
760.0000	79.8177
759.9000	79.8262
759.8000	79.8392
759.7000	79.8355
759.6000	79.826
759.5000	79.8164
759.4000	79.7967
759.3000	79.7727
759.2000	79.7385
759.1000	79.6934
759.0000	79.6524
758.9000	79.6093
758.8000	79.561
758.7000	79.4975
758.6000	79.4306
758.5000	79.3581
758.4000	79.2808
758.3000	79.1958
758.2000	79.1009
758.1000	79.0078
758.0000	78.9087
757.9000	78.8025
757.8000	78.6893
757.7000	78.5724
757.6000	78.4597
757.5000	78.344
757.4000	78.2112
757.3000	78.0728
757.2000	77.9346
757.1000	77.7945
757.0000	77.6504
756.9000	77.506
756.8000	77.3524
756.7000	77.2026
756.6000	77.0499
756.5000	76.8894
756.4000	76.7342
756.3000	76.5707
756.2000	76.4083
756.1000	76.2415
756.0000	76.0647
755.9000	75.8872
755.8000	75.7102
755.7000	75.5349
755.6000	75.3556
755.5000	75.1741
755.4000	74.9917
755.3000	74.8107
755.2000	74.6332
755.1000	74.4438
755.0000	74.2587
754.9000	74.0785
754.8000	73.89
754.7000	73.7072
754.6000	73.5208
754.5000	73.3394
754.4000	73.157
754.3000	72.9722
754.2000	72.7928
754.1000	72.6144
754.0000	72.436
753.9000	72.2591
753.8000	72.0889
753.7000	71.9142
753.6000	71.7398
753.5000	71.575
753.4000	71.4085
753.3000	71.2428
753.2000	71.0805
753.1000	70.9224
753.0000	70.7695
752.9000	70.6169
752.8000	70.4698
752.7000	70.3254
752.6000	70.1869
752.5000	70.0439
752.4000	69.9092
752.3000	69.7776
752.2000	69.6478
752.1000	69.5234
752.0000	69.4048
751.9000	69.2892
751.8000	69.182
751.7000	69.0699
751.6000	68.9689
751.5000	68.8696
751.4000	68.7715
751.3000	68.6832
751.2000	68.6015
751.1000	68.5277
751.0000	68.4529
750.9000	68.3885
750.8000	68.3217
750.7000	68.2658
750.6000	68.2116
750.5000	68.1612
750.4000	68.1154
750.3000	68.071
750.2000	68.0315
750.1000	68.0072
750.0000	67.9821
749.9000	67.9658
749.8000	67.9531
749.7000	67.9434
749.6000	67.9358
749.5000	67.9328
749.4000	67.9381
749.3000	67.9471
749.2000	67.968
749.1000	67.9866
749.0000	68.0155
748.9000	68.0475
748.8000	68.0857
748.7000	68.1345
748.6000	68.1831
748.5000	68.231
748.4000	68.2945
748.3000	68.3499
748.2000	68.4197
748.1000	68.4937
748.0000	68.5739
747.9000	68.6584
747.8000	68.7469
747.7000	68.8417
747.6000	68.9387
747.5000	69.0449
747.4000	69.1492
747.3000	69.2646
747.2000	69.3816
747.1000	69.498
747.0000	69.6227
746.9000	69.7553
746.8000	69.8812
746.7000	70.0202
746.6000	70.1632
746.5000	70.3098
746.4000	70.4561
746.3000	70.6128
746.2000	70.7666
746.1000	70.9251
746.0000	71.0862
745.9000	71.2521
745.8000	71.4178
745.7000	71.5838
745.6000	71.7573
745.5000	71.9347
745.4000	72.115
745.3000	72.2949
745.2000	72.4788
745.1000	72.6643
745.0000	72.8515
744.9000	73.0361
744.8000	73.2275
744.7000	73.4141
744.6000	73.6064
744.5000	73.797
744.4000	73.9881
744.3000	74.1777
744.2000	74.3731
744.1000	74.5698
744.0000	74.7622
743.9000	74.9522
743.8000	75.1387
743.7000	75.3251
743.6000	75.5128
743.5000	75.6973
743.4000	75.8809
743.3000	76.071
743.2000	76.2504
743.1000	76.4244
743.0000	76.6017
742.9000	76.7728
742.8000	76.9466
742.7000	77.1144
742.6000	77.2811
742.5000	77.4423
742.4000	77.5977
742.3000	77.7525
742.2000	77.9049
742.1000	78.0571
742.0000	78.2005
741.9000	78.3478
741.8000	78.4809
741.7000	78.6057
741.6000	78.7289
741.5000	78.8557
741.4000	78.9716
741.3000	79.0818
741.2000	79.1876
741.1000	79.286
741.0000	79.3776
740.9000	79.4616
740.8000	79.5448
740.7000	79.6228
740.6000	79.6935
740.5000	79.755
740.4000	79.8182
740.3000	79.8671
740.2000	79.9111
740.1000	79.946
740.0000	79.9261
739.9000	79.9528
739.8000	79.9679
739.7000	79.9818
739.6000	79.9854
739.5000	79.9817
739.4000	79.9782
739.3000	79.9663
739.2000	79.9451
739.1000	79.9131
739.0000	79.8805
738.9000	79.8372
738.8000	79.7904
738.7000	79.7344
738.6000	79.6775
738.5000	79.6126
738.4000	79.5428
738.3000	79.462
738.2000	79.3776
738.1000	79.2842
738.0000	79.1915
737.9000	79.0906
737.8000	78.983
737.7000	78.8727
737.6000	78.7589
737.5000	78.6431
737.4000	78.5167
737.3000	78.3876
737.2000	78.2562
737.1000	78.1197
737.0000	77.9797
736.9000	77.8331
736.8000	77.6826
736.7000	77.5281
736.6000	77.374
736.5000	77.216
736.4000	77.0545
736.3000	76.8888
736.2000	76.7187
736.1000	76.5501
736.0000	76.3737
735.9000	76.1938
735.8000	76.0146
735.7000	75.8384
735.6000	75.6547
735.5000	75.4705
735.4000	75.2804
735.3000	75.1013
735.2000	74.9152
735.1000	74.7331
735.0000	74.5496
734.9000	74.3637
734.8000	74.1771
734.7000	73.9915
734.6000	73.8105
734.5000	73.6267
734.4000	73.4471
734.3000	73.2686
734.2000	73.0909
734.1000	72.9145
734.0000	72.7375
733.9000	72.5651
733.8000	72.3971
733.7000	72.2248
733.6000	72.0591
733.5000	71.8929
