TITLE	p-GaN_NP_0
DATA TYPE	ULTRAVIOLET SPECTRUM
ORIGIN	JASCO
OWNER	
DATE	21/05/03
TIME	16:27:08
SPECTROMETER/DATA SYSTEM	
RESOLUTION	
DELTAX	-0.1
XUNITS	NANOMETERS
YUNITS	TRANSMITTANCE
FIRSTX	  850.0000
LASTX	  250.0000
NPOINTS	    6001
FIRSTY	    75.27925
MAXY	    79.98762
MINY	     0.00049
XYDATA
850.0000	75.2793
849.9000	75.167
849.8000	75.0611
849.7000	74.939
849.6000	74.8297
849.5000	74.7184
849.4000	74.5999
849.3000	74.4852
849.2000	74.3767
849.1000	74.2626
849.0000	74.1507
848.9000	74.0399
848.8000	73.9151
848.7000	73.797
848.6000	73.6816
848.5000	73.5614
848.4000	73.4444
848.3000	73.3294
848.2000	73.2246
848.1000	73.1163
848.0000	73.0109
847.9000	72.9107
847.8000	72.8107
847.7000	72.7066
847.6000	72.5951
847.5000	72.5007
847.4000	72.3952
847.3000	72.3061
847.2000	72.2114
847.1000	72.1285
847.0000	72.0333
846.9000	71.9433
846.8000	71.8624
846.7000	71.7768
846.6000	71.6857
846.5000	71.5974
846.4000	71.5056
846.3000	71.4105
846.2000	71.3262
846.1000	71.2424
846.0000	71.1619
845.9000	71.0705
845.8000	70.9853
845.7000	70.9027
845.6000	70.8253
845.5000	70.7526
845.4000	70.6807
845.3000	70.6063
845.2000	70.5289
845.1000	70.4625
845.0000	70.3889
844.9000	70.3348
844.8000	70.2711
844.7000	70.2237
844.6000	70.1561
844.5000	70.1044
844.4000	70.0527
844.3000	70.0146
844.2000	69.9739
844.1000	69.9336
844.0000	69.8878
843.9000	69.8423
843.8000	69.803
843.7000	69.7745
843.6000	69.7499
843.5000	69.718
843.4000	69.6931
843.3000	69.6596
843.2000	69.6414
843.1000	69.6159
843.0000	69.606
842.9000	69.589
842.8000	69.5822
842.7000	69.5622
842.6000	69.5574
842.5000	69.546
842.4000	69.5461
842.3000	69.5436
842.2000	69.5488
842.1000	69.5533
842.0000	69.5595
841.9000	69.5689
841.8000	69.583
841.7000	69.604
841.6000	69.6197
841.5000	69.6343
841.4000	69.6571
841.3000	69.6837
841.2000	69.7108
841.1000	69.7403
841.0000	69.7678
840.9000	69.8015
840.8000	69.8358
840.7000	69.8752
840.6000	69.9202
840.5000	69.9622
840.4000	70.0117
840.3000	70.0602
840.2000	70.1168
840.1000	70.1644
840.0000	70.2229
839.9000	70.2821
839.8000	70.3387
839.7000	70.3916
839.6000	70.4538
839.5000	70.5213
839.4000	70.5919
839.3000	70.6638
839.2000	70.7387
839.1000	70.8147
839.0000	70.8904
838.9000	70.9636
838.8000	71.0317
838.7000	71.1161
838.6000	71.1905
838.5000	71.2839
838.4000	71.3696
838.3000	71.4606
838.2000	71.5535
838.1000	71.6524
838.0000	71.7446
837.9000	71.8331
837.8000	71.9252
837.7000	72.027
837.6000	72.1346
837.5000	72.2435
837.4000	72.3408
837.3000	72.4543
837.2000	72.5622
837.1000	72.6652
837.0000	72.787
836.9000	72.8896
836.8000	73.0042
836.7000	73.1174
836.6000	73.2317
836.5000	73.3392
836.4000	73.4491
836.3000	73.5738
836.2000	73.6924
836.1000	73.81
836.0000	73.9208
835.9000	74.0401
835.8000	74.1636
835.7000	74.2808
835.6000	74.4023
835.5000	74.5184
835.4000	74.6279
835.3000	74.7476
835.2000	74.8694
835.1000	74.9928
835.0000	75.11
834.9000	75.2407
834.8000	75.3703
834.7000	75.4879
834.6000	75.6157
834.5000	75.7376
834.4000	75.8622
834.3000	75.9766
834.2000	76.0893
834.1000	76.2052
834.0000	76.3283
833.9000	76.4534
833.8000	76.5688
833.7000	76.6895
833.6000	76.8011
833.5000	76.9145
833.4000	77.0317
833.3000	77.1346
833.2000	77.2398
833.1000	77.3453
833.0000	77.4499
832.9000	77.5466
832.8000	77.6398
832.7000	77.7354
832.6000	77.8405
832.5000	77.9432
832.4000	78.0291
832.3000	78.132
832.2000	78.2317
832.1000	78.3227
832.0000	78.41
831.9000	78.4982
831.8000	78.5813
831.7000	78.6644
831.6000	78.7425
831.5000	78.8219
831.4000	78.8988
831.3000	78.9787
831.2000	79.0539
831.1000	79.1259
831.0000	79.2002
830.9000	79.2663
830.8000	79.3331
830.7000	79.3814
830.6000	79.4313
830.5000	79.4811
830.4000	79.5256
830.3000	79.5657
830.2000	79.6108
830.1000	79.6568
830.0000	79.6966
829.9000	79.7392
829.8000	79.7746
829.7000	79.8036
829.6000	79.8324
829.5000	79.8577
829.4000	79.8766
829.3000	79.8877
829.2000	79.9073
829.1000	79.9311
829.0000	79.9492
828.9000	79.9633
828.8000	79.9751
828.7000	79.9793
828.6000	79.9852
828.5000	79.9876
828.4000	79.9822
828.3000	79.9742
828.2000	79.9619
828.1000	79.9499
828.0000	79.9359
827.9000	79.9202
827.8000	79.8897
827.7000	79.8658
827.6000	79.8369
827.5000	79.7909
827.4000	79.7467
827.3000	79.706
827.2000	79.6693
827.1000	79.629
827.0000	79.5791
826.9000	79.5201
826.8000	79.4652
826.7000	79.4101
826.6000	79.3493
826.5000	79.2866
826.4000	79.2244
826.3000	79.1624
826.2000	79.0906
826.1000	79.016
826.0000	78.9424
825.9000	78.87
825.8000	78.7962
825.7000	78.712
825.6000	78.6254
825.5000	78.5385
825.4000	78.4573
825.3000	78.3749
825.2000	78.288
825.1000	78.1955
825.0000	78.1009
824.9000	77.9994
824.8000	77.9001
824.7000	77.7905
824.6000	77.6972
824.5000	77.6019
824.4000	77.4996
824.3000	77.3939
824.2000	77.2828
824.1000	77.1725
824.0000	77.0624
823.9000	76.9534
823.8000	76.8334
823.7000	76.7155
823.6000	76.5995
823.5000	76.4726
823.4000	76.3519
823.3000	76.2416
823.2000	76.1223
823.1000	76.0029
823.0000	75.8811
822.9000	75.7596
822.8000	75.6357
822.7000	75.5182
822.6000	75.4035
822.5000	75.2897
822.4000	75.1682
822.3000	75.0469
822.2000	74.9249
822.1000	74.8043
822.0000	74.6814
821.9000	74.5684
821.8000	74.4429
821.7000	74.3207
821.6000	74.199
821.5000	74.0772
821.4000	73.9601
821.3000	73.84
821.2000	73.7214
821.1000	73.6059
821.0000	73.4831
820.9000	73.3539
820.8000	73.2328
820.7000	73.1197
820.6000	73.0061
820.5000	72.8915
820.4000	72.7823
820.3000	72.6677
820.2000	72.5631
820.1000	72.4554
820.0000	72.3493
819.9000	72.2482
819.8000	72.1351
819.7000	72.0314
819.6000	71.9271
819.5000	71.8224
819.4000	71.7269
819.3000	71.638
819.2000	71.5527
819.1000	71.4519
819.0000	71.3603
818.9000	71.2775
818.8000	71.1963
818.7000	71.1141
818.6000	71.0311
818.5000	70.9535
818.4000	70.8807
818.3000	70.8067
818.2000	70.7413
818.1000	70.677
818.0000	70.6119
817.9000	70.5481
817.8000	70.489
817.7000	70.4311
817.6000	70.372
817.5000	70.3208
817.4000	70.2682
817.3000	70.2169
817.2000	70.1674
817.1000	70.1308
817.0000	70.0949
816.9000	70.0594
816.8000	70.0214
816.7000	69.9915
816.6000	69.9611
816.5000	69.9361
816.4000	69.9134
816.3000	69.8948
816.2000	69.8779
816.1000	69.8681
816.0000	69.8564
815.9000	69.8483
815.8000	69.8464
815.7000	69.8441
815.6000	69.846
815.5000	69.8459
815.4000	69.8474
815.3000	69.8485
815.2000	69.8613
815.1000	69.8771
815.0000	69.8946
814.9000	69.9111
814.8000	69.9417
814.7000	69.9703
814.6000	69.9956
814.5000	70.0201
814.4000	70.0506
814.3000	70.093
814.2000	70.1316
814.1000	70.1687
814.0000	70.212
813.9000	70.2565
813.8000	70.3067
813.7000	70.3648
813.6000	70.4115
813.5000	70.4729
813.4000	70.5391
813.3000	70.6009
813.2000	70.6612
813.1000	70.7269
813.0000	70.7982
812.9000	70.8741
812.8000	70.9506
812.7000	71.0255
812.6000	71.104
812.5000	71.1843
812.4000	71.2648
812.3000	71.351
812.2000	71.4394
812.1000	71.5275
812.0000	71.6246
811.9000	71.7088
811.8000	71.792
811.7000	71.8935
811.6000	71.988
811.5000	72.0858
811.4000	72.1855
811.3000	72.2925
811.2000	72.3976
811.1000	72.5058
811.0000	72.6134
810.9000	72.7229
810.8000	72.8334
810.7000	72.942
810.6000	73.0656
810.5000	73.1739
810.4000	73.2842
810.3000	73.3981
810.2000	73.5183
810.1000	73.6295
810.0000	73.7489
809.9000	73.8633
809.8000	73.9862
809.7000	74.1038
809.6000	74.2273
809.5000	74.3471
809.4000	74.4759
809.3000	74.6101
809.2000	74.7375
809.1000	74.8701
809.0000	74.9811
808.9000	75.1139
808.8000	75.2417
808.7000	75.3686
808.6000	75.4976
808.5000	75.6305
808.4000	75.7597
808.3000	75.8893
808.2000	76.0122
808.1000	76.137
808.0000	76.2601
807.9000	76.3773
807.8000	76.4917
807.7000	76.6058
807.6000	76.7191
807.5000	76.8302
807.4000	76.9508
807.3000	77.0664
807.2000	77.1833
807.1000	77.2958
807.0000	77.4083
806.9000	77.517
806.8000	77.6213
806.7000	77.7254
806.6000	77.8315
806.5000	77.9333
806.4000	78.0363
806.3000	78.1424
806.2000	78.2416
806.1000	78.341
806.0000	78.4375
805.9000	78.5295
805.8000	78.615
805.7000	78.6982
805.6000	78.773
805.5000	78.8586
805.4000	78.9391
805.3000	79.0041
805.2000	79.0744
805.1000	79.1503
805.0000	79.2224
804.9000	79.2846
804.8000	79.3451
804.7000	79.3993
804.6000	79.4572
804.5000	79.5031
804.4000	79.5522
804.3000	79.5967
804.2000	79.6384
804.1000	79.676
804.0000	79.7152
803.9000	79.7461
803.8000	79.7712
803.7000	79.7959
803.6000	79.8195
803.5000	79.8368
803.4000	79.8515
803.3000	79.865
803.2000	79.8694
803.1000	79.8736
803.0000	79.8674
802.9000	79.867
802.8000	79.8651
802.7000	79.8571
802.6000	79.849
802.5000	79.8337
802.4000	79.8264
802.3000	79.8069
802.2000	79.7842
802.1000	79.7679
802.0000	79.7419
801.9000	79.7039
801.8000	79.6616
801.7000	79.6218
801.6000	79.5796
801.5000	79.5384
801.4000	79.4924
801.3000	79.4463
801.2000	79.3908
801.1000	79.3386
801.0000	79.281
800.9000	79.2172
800.8000	79.146
800.7000	79.0742
800.6000	79.0024
800.5000	78.9257
800.4000	78.8405
800.3000	78.761
800.2000	78.6773
800.1000	78.5835
800.0000	78.4889
799.9000	78.3941
799.8000	78.2992
799.7000	78.1935
799.6000	78.094
799.5000	77.9837
799.4000	77.8706
799.3000	77.7692
799.2000	77.6552
799.1000	77.5428
799.0000	77.4221
798.9000	77.3078
798.8000	77.1936
798.7000	77.073
798.6000	76.9591
798.5000	76.8381
798.4000	76.7142
798.3000	76.5845
798.2000	76.4578
798.1000	76.3367
798.0000	76.2077
797.9000	76.0853
797.8000	75.9578
797.7000	75.8275
797.6000	75.7014
797.5000	75.5725
797.4000	75.4457
797.3000	75.3154
797.2000	75.1933
797.1000	75.0681
797.0000	74.9371
796.9000	74.8178
796.8000	74.6969
796.7000	74.5683
796.6000	74.4464
796.5000	74.3195
796.4000	74.1914
796.3000	74.0635
796.2000	73.9435
796.1000	73.8127
796.0000	73.6909
795.9000	73.5673
795.8000	73.4464
795.7000	73.3225
795.6000	73.1973
795.5000	73.0727
795.4000	72.9491
795.3000	72.8269
795.2000	72.7117
795.1000	72.5999
795.0000	72.4902
794.9000	72.3758
794.8000	72.2727
794.7000	72.1655
794.6000	72.0624
794.5000	71.965
794.4000	71.8605
794.3000	71.7564
794.2000	71.6615
794.1000	71.5695
794.0000	71.4804
793.9000	71.3943
793.8000	71.3088
793.7000	71.2258
793.6000	71.1449
793.5000	71.0659
793.4000	70.9862
793.3000	70.9098
793.2000	70.8335
793.1000	70.7673
793.0000	70.6968
792.9000	70.6307
792.8000	70.5729
792.7000	70.5212
792.6000	70.4658
792.5000	70.4071
792.4000	70.3548
792.3000	70.305
792.2000	70.262
792.1000	70.2186
792.0000	70.1806
791.9000	70.1489
791.8000	70.1167
791.7000	70.0965
791.6000	70.0722
791.5000	70.0447
791.4000	70.0288
791.3000	70.0166
791.2000	69.9997
791.1000	69.9893
791.0000	69.9835
790.9000	69.9853
790.8000	69.9865
790.7000	69.9948
790.6000	69.9994
790.5000	70.0123
790.4000	70.0284
790.3000	70.0401
790.2000	70.0581
790.1000	70.0779
790.0000	70.1051
789.9000	70.1367
789.8000	70.163
789.7000	70.1969
789.6000	70.2386
789.5000	70.2806
789.4000	70.3233
789.3000	70.3729
789.2000	70.4244
789.1000	70.4826
789.0000	70.5406
788.9000	70.5956
788.8000	70.652
788.7000	70.7192
788.6000	70.791
788.5000	70.8603
788.4000	70.9312
788.3000	71.0101
788.2000	71.0948
788.1000	71.1747
788.0000	71.2639
787.9000	71.3514
787.8000	71.4445
787.7000	71.5317
787.6000	71.6189
787.5000	71.7098
787.4000	71.8073
787.3000	71.9097
787.2000	72.0129
787.1000	72.1174
787.0000	72.2212
786.9000	72.3276
786.8000	72.4347
786.7000	72.5441
786.6000	72.658
786.5000	72.7787
786.4000	72.8838
786.3000	72.9983
786.2000	73.1157
786.1000	73.2371
786.0000	73.3607
785.9000	73.4839
785.8000	73.6097
785.7000	73.7386
785.6000	73.8654
785.5000	73.9944
785.4000	74.113
785.3000	74.2431
785.2000	74.3733
785.1000	74.5
785.0000	74.6288
784.9000	74.7504
784.8000	74.8866
784.7000	75.0174
784.6000	75.1451
784.5000	75.2745
784.4000	75.409
784.3000	75.535
784.2000	75.662
784.1000	75.783
784.0000	75.911
783.9000	76.038
783.8000	76.1677
783.7000	76.2916
783.6000	76.4157
783.5000	76.5417
783.4000	76.6618
783.3000	76.7852
783.2000	76.9035
783.1000	77.0189
783.0000	77.1368
782.9000	77.2509
782.8000	77.3609
782.7000	77.4724
782.6000	77.5818
782.5000	77.6949
782.4000	77.8039
782.3000	77.9077
782.2000	78.017
782.1000	78.1174
782.0000	78.2178
781.9000	78.3129
781.8000	78.4039
781.7000	78.4938
781.6000	78.582
781.5000	78.668
781.4000	78.7486
781.3000	78.8347
781.2000	78.9155
781.1000	78.9905
781.0000	79.0569
780.9000	79.1176
780.8000	79.181
780.7000	79.2437
780.6000	79.2932
780.5000	79.3535
780.4000	79.4026
780.3000	79.4519
780.2000	79.4999
780.1000	79.5396
780.0000	79.5724
779.9000	79.6106
779.8000	79.6415
779.7000	79.6613
779.6000	79.6798
779.5000	79.7008
779.4000	79.7277
779.3000	79.7438
779.2000	79.7488
779.1000	79.7603
779.0000	79.7701
778.9000	79.7639
778.8000	79.7562
778.7000	79.7456
778.6000	79.7295
778.5000	79.7107
778.4000	79.6923
778.3000	79.6633
778.2000	79.6371
778.1000	79.6105
778.0000	79.5796
777.9000	79.5433
777.8000	79.4957
777.7000	79.4529
777.6000	79.4004
777.5000	79.3401
777.4000	79.2804
777.3000	79.217
777.2000	79.155
777.1000	79.0851
777.0000	79.0147
776.9000	78.9452
776.8000	78.8763
776.7000	78.8009
776.6000	78.7225
776.5000	78.6323
776.4000	78.5468
776.3000	78.4561
776.2000	78.3576
776.1000	78.2629
776.0000	78.1679
775.9000	78.0677
775.8000	77.9642
775.7000	77.8643
775.6000	77.7561
775.5000	77.6508
775.4000	77.5446
775.3000	77.4307
775.2000	77.3121
775.1000	77.1984
775.0000	77.0751
774.9000	76.9601
774.8000	76.8334
774.7000	76.7053
774.6000	76.5822
774.5000	76.4547
774.4000	76.331
774.3000	76.199
774.2000	76.0678
774.1000	75.9361
774.0000	75.817
773.9000	75.6833
773.8000	75.5476
773.7000	75.4218
773.6000	75.288
773.5000	75.1537
773.4000	75.0237
773.3000	74.8901
773.2000	74.7611
773.1000	74.6316
773.0000	74.5051
772.9000	74.3713
772.8000	74.2413
772.7000	74.1184
772.6000	73.994
772.5000	73.8673
772.4000	73.7326
772.3000	73.6034
772.2000	73.4744
772.1000	73.3425
772.0000	73.2194
771.9000	73.0967
771.8000	72.9791
771.7000	72.8567
771.6000	72.7393
771.5000	72.6283
771.4000	72.5085
771.3000	72.4007
771.2000	72.2864
771.1000	72.1793
771.0000	72.0712
770.9000	71.968
770.8000	71.8658
770.7000	71.7683
770.6000	71.6747
770.5000	71.5846
770.4000	71.4921
770.3000	71.4055
770.2000	71.3135
770.1000	71.23
770.0000	71.1439
769.9000	71.0613
769.8000	70.9942
769.7000	70.9202
769.6000	70.8522
769.5000	70.7837
769.4000	70.7196
769.3000	70.6595
769.2000	70.597
769.1000	70.5434
769.0000	70.4993
768.9000	70.4453
768.8000	70.4036
768.7000	70.3598
768.6000	70.3215
768.5000	70.2896
768.4000	70.2612
768.3000	70.236
768.2000	70.2061
768.1000	70.1854
768.0000	70.1673
767.9000	70.151
767.8000	70.1452
767.7000	70.1357
767.6000	70.1349
767.5000	70.1372
767.4000	70.1347
767.3000	70.1456
767.2000	70.1545
767.1000	70.1665
767.0000	70.1876
766.9000	70.208
766.8000	70.229
766.7000	70.2505
766.6000	70.285
766.5000	70.3205
766.4000	70.3598
766.3000	70.4017
766.2000	70.441
766.1000	70.4896
766.0000	70.5396
765.9000	70.5894
765.8000	70.647
765.7000	70.7099
765.6000	70.7758
765.5000	70.8456
765.4000	70.9159
765.3000	70.9916
765.2000	71.0704
765.1000	71.1526
765.0000	71.2314
764.9000	71.3167
764.8000	71.403
764.7000	71.4922
764.6000	71.5867
764.5000	71.6814
764.4000	71.7863
764.3000	71.899
764.2000	72.0031
764.1000	72.1028
764.0000	72.2069
763.9000	72.3138
763.8000	72.4228
763.7000	72.5326
763.6000	72.6468
763.5000	72.7682
763.4000	72.8876
763.3000	73.0065
763.2000	73.1251
763.1000	73.2483
763.0000	73.3768
762.9000	73.5053
762.8000	73.6327
762.7000	73.7542
762.6000	73.8849
762.5000	74.0213
762.4000	74.1543
762.3000	74.2865
762.2000	74.4253
762.1000	74.5614
762.0000	74.6962
761.9000	74.8268
761.8000	74.9609
761.7000	75.0933
761.6000	75.232
761.5000	75.3653
761.4000	75.4925
761.3000	75.6249
761.2000	75.7523
761.1000	75.8851
761.0000	76.0202
760.9000	76.1434
760.8000	76.2724
760.7000	76.4046
760.6000	76.5284
760.5000	76.6566
760.4000	76.7806
760.3000	76.9091
760.2000	77.0384
760.1000	77.1618
760.0000	77.2817
759.9000	77.3983
759.8000	77.5227
759.7000	77.6335
759.6000	77.7463
759.5000	77.8558
759.4000	77.9581
759.3000	78.0722
759.2000	78.1724
759.1000	78.2677
759.0000	78.3652
758.9000	78.4556
758.8000	78.5507
758.7000	78.634
758.6000	78.7098
758.5000	78.7874
758.4000	78.8626
758.3000	78.9376
758.2000	79.0029
758.1000	79.0754
758.0000	79.1377
757.9000	79.1966
757.8000	79.2479
757.7000	79.2931
757.6000	79.3442
757.5000	79.3939
757.4000	79.429
757.3000	79.4642
757.2000	79.4952
757.1000	79.5254
757.0000	79.5571
756.9000	79.5792
756.8000	79.5962
756.7000	79.6094
756.6000	79.6154
756.5000	79.6177
756.4000	79.6213
756.3000	79.6175
756.2000	79.6156
756.1000	79.6029
756.0000	79.5875
755.9000	79.5635
755.8000	79.5398
755.7000	79.5169
755.6000	79.4859
755.5000	79.4457
755.4000	79.4016
755.3000	79.3631
755.2000	79.3152
755.1000	79.2683
755.0000	79.2168
754.9000	79.1631
754.8000	79.0999
754.7000	79.0334
754.6000	78.961
754.5000	78.8929
754.4000	78.8114
754.3000	78.73
754.2000	78.6506
754.1000	78.5622
754.0000	78.4687
753.9000	78.376
753.8000	78.2851
753.7000	78.1849
753.6000	78.0839
753.5000	77.975
753.4000	77.8712
753.3000	77.7508
753.2000	77.6416
753.1000	77.5247
753.0000	77.4085
752.9000	77.2876
752.8000	77.1686
752.7000	77.0432
752.6000	76.9206
752.5000	76.79
752.4000	76.6652
752.3000	76.5368
752.2000	76.4013
752.1000	76.2696
752.0000	76.1405
751.9000	76.0064
751.8000	75.8668
751.7000	75.7343
751.6000	75.5948
751.5000	75.4562
751.4000	75.317
751.3000	75.1756
751.2000	75.0403
751.1000	74.9094
751.0000	74.7716
750.9000	74.638
750.8000	74.4997
750.7000	74.365
750.6000	74.2311
750.5000	74.0925
750.4000	73.9527
750.3000	73.8184
750.2000	73.6879
750.1000	73.5557
750.0000	73.427
749.9000	73.3039
749.8000	73.1777
749.7000	73.0549
749.6000	72.9297
749.5000	72.8073
749.4000	72.6872
749.3000	72.5698
749.2000	72.4599
749.1000	72.3462
749.0000	72.2342
748.9000	72.1279
748.8000	72.0215
748.7000	71.9158
748.6000	71.8147
748.5000	71.7151
748.4000	71.622
748.3000	71.5216
748.2000	71.4349
748.1000	71.3525
748.0000	71.2716
747.9000	71.1905
747.8000	71.112
747.7000	71.0385
747.6000	70.965
747.5000	70.8968
747.4000	70.8271
747.3000	70.7638
747.2000	70.7071
747.1000	70.6578
747.0000	70.607
746.9000	70.5629
746.8000	70.5149
746.7000	70.4814
746.6000	70.4434
746.5000	70.4074
746.4000	70.3763
746.3000	70.353
746.2000	70.3326
746.1000	70.313
746.0000	70.2962
745.9000	70.2902
745.8000	70.2902
745.7000	70.2869
745.6000	70.2937
745.5000	70.3024
745.4000	70.3112
745.3000	70.3266
745.2000	70.3495
745.1000	70.3715
745.0000	70.4018
744.9000	70.4336
744.8000	70.4689
744.7000	70.5071
744.6000	70.5492
744.5000	70.5977
744.4000	70.6476
744.3000	70.7009
744.2000	70.7563
744.1000	70.8214
744.0000	70.8829
743.9000	70.9467
743.8000	71.0185
743.7000	71.091
743.6000	71.1633
743.5000	71.2459
743.4000	71.3307
743.3000	71.4238
743.2000	71.511
743.1000	71.6014
743.0000	71.6969
742.9000	71.7946
742.8000	71.9013
742.7000	72.0028
742.6000	72.1167
742.5000	72.2286
742.4000	72.3449
742.3000	72.465
742.2000	72.5843
742.1000	72.7098
742.0000	72.8356
741.9000	72.9613
741.8000	73.0872
741.7000	73.211
741.6000	73.3434
741.5000	73.4818
741.4000	73.6158
741.3000	73.747
741.2000	73.8784
741.1000	74.0141
741.0000	74.1475
740.9000	74.2848
740.8000	74.4215
740.7000	74.5565
740.6000	74.6933
740.5000	74.8278
740.4000	74.9697
740.3000	75.1092
740.2000	75.2479
740.1000	75.3822
740.0000	75.4892
739.9000	75.6309
739.8000	75.7704
739.7000	75.9058
739.6000	76.0374
739.5000	76.1733
739.4000	76.3083
739.3000	76.4398
739.2000	76.5746
739.1000	76.6976
739.0000	76.8266
738.9000	76.9546
738.8000	77.0766
738.7000	77.1976
738.6000	77.3179
738.5000	77.4314
738.4000	77.5489
738.3000	77.6538
738.2000	77.7613
738.1000	77.8634
738.0000	77.9655
737.9000	78.0638
737.8000	78.161
737.7000	78.2575
737.6000	78.349
737.5000	78.4418
737.4000	78.5247
737.3000	78.6003
737.2000	78.6796
737.1000	78.7549
737.0000	78.8251
736.9000	78.89
736.8000	78.9522
736.7000	79.0104
736.6000	79.0692
736.5000	79.1244
736.4000	79.1818
736.3000	79.2231
736.2000	79.2612
736.1000	79.2954
736.0000	79.3239
735.9000	79.3491
735.8000	79.373
735.7000	79.3962
735.6000	79.4081
735.5000	79.4153
735.4000	79.4184
735.3000	79.4253
735.2000	79.4229
735.1000	79.4207
735.0000	79.4076
734.9000	79.3879
734.8000	79.3623
734.7000	79.3363
734.6000	79.3078
734.5000	79.2759
734.4000	79.2388
734.3000	79.1992
734.2000	79.1484
734.1000	79.0954
734.0000	79.0459
733.9000	78.9891
733.8000	78.9266
733.7000	78.8565
733.6000	78.7841
733.5000	78.7054
