TITLE	p-GaN-NP
DATA TYPE	ULTRAVIOLET SPECTRUM
ORIGIN	JASCO
OWNER	
DATE	21/05/03
TIME	16:56:37
SPECTROMETER/DATA SYSTEM	
RESOLUTION	
DELTAX	-0.1
XUNITS	NANOMETERS
YUNITS	TRANSMITTANCE
FIRSTX	  850.0000
LASTX	  250.0000
NPOINTS	    6001
FIRSTY	    76.30771
MAXY	    79.46679
MINY	     0.00225
XYDATA
850.0000	76.3077
849.9000	76.1763
849.8000	76.0581
849.7000	75.9464
849.6000	75.8381
849.5000	75.7318
849.4000	75.6067
849.3000	75.4937
849.2000	75.3791
849.1000	75.2612
849.0000	75.1432
848.9000	75.0203
848.8000	74.9014
848.7000	74.7841
848.6000	74.6864
848.5000	74.5695
848.4000	74.4521
848.3000	74.3305
848.2000	74.2214
848.1000	74.0989
848.0000	73.9806
847.9000	73.8516
847.8000	73.7384
847.7000	73.6213
847.6000	73.4967
847.5000	73.3785
847.4000	73.2568
847.3000	73.1396
847.2000	73.0311
847.1000	72.9102
847.0000	72.7906
846.9000	72.6813
846.8000	72.5817
846.7000	72.4795
846.6000	72.3773
846.5000	72.2822
846.4000	72.1744
846.3000	72.0787
846.2000	71.9819
846.1000	71.8843
846.0000	71.7969
845.9000	71.7037
845.8000	71.62
845.7000	71.5418
845.6000	71.4572
845.5000	71.3755
845.4000	71.2779
845.3000	71.1929
845.2000	71.1058
845.1000	71.0331
845.0000	70.949
844.9000	70.8668
844.8000	70.7991
844.7000	70.7315
844.6000	70.6581
844.5000	70.5899
844.4000	70.5166
844.3000	70.4516
844.2000	70.3843
844.1000	70.3159
844.0000	70.2569
843.9000	70.2039
843.8000	70.1559
843.7000	70.1039
843.6000	70.063
843.5000	70.0084
843.4000	69.9699
843.3000	69.9296
843.2000	69.8923
843.1000	69.8488
843.0000	69.8213
842.9000	69.7906
842.8000	69.7703
842.7000	69.7484
842.6000	69.7253
842.5000	69.7048
842.4000	69.6847
842.3000	69.6661
842.2000	69.6567
842.1000	69.6505
842.0000	69.6366
841.9000	69.6302
841.8000	69.6266
841.7000	69.6229
841.6000	69.6234
841.5000	69.6308
841.4000	69.6348
841.3000	69.6435
841.2000	69.646
841.1000	69.6634
841.0000	69.6741
840.9000	69.6831
840.8000	69.7115
840.7000	69.728
840.6000	69.7514
840.5000	69.7739
840.4000	69.8029
840.3000	69.8426
840.2000	69.8803
840.1000	69.9178
840.0000	69.9586
839.9000	70.0009
839.8000	70.0472
839.7000	70.0985
839.6000	70.1508
839.5000	70.1951
839.4000	70.2509
839.3000	70.3087
839.2000	70.3508
839.1000	70.4122
839.0000	70.4774
838.9000	70.5416
838.8000	70.6089
838.7000	70.6772
838.6000	70.7468
838.5000	70.8207
838.4000	70.893
838.3000	70.9751
838.2000	71.0521
838.1000	71.1283
838.0000	71.2124
837.9000	71.3024
837.8000	71.3919
837.7000	71.4841
837.6000	71.5905
837.5000	71.6892
837.4000	71.7784
837.3000	71.8782
837.2000	71.9736
837.1000	72.0707
837.0000	72.1748
836.9000	72.2703
836.8000	72.3762
836.7000	72.474
836.6000	72.5788
836.5000	72.6855
836.4000	72.7934
836.3000	72.8962
836.2000	73.0058
836.1000	73.1178
836.0000	73.2308
835.9000	73.342
835.8000	73.4606
835.7000	73.5695
835.6000	73.6881
835.5000	73.8014
835.4000	73.9073
835.3000	74.0194
835.2000	74.1306
835.1000	74.2377
835.0000	74.3604
834.9000	74.4798
834.8000	74.5816
834.7000	74.7023
834.6000	74.8101
834.5000	74.926
834.4000	75.0311
834.3000	75.1486
834.2000	75.2561
834.1000	75.3739
834.0000	75.4875
833.9000	75.5968
833.8000	75.7107
833.7000	75.8361
833.6000	75.9501
833.5000	76.0746
833.4000	76.1751
833.3000	76.2879
833.2000	76.4041
833.1000	76.5001
833.0000	76.611
832.9000	76.7185
832.8000	76.8231
832.7000	76.9277
832.6000	77.0326
832.5000	77.1322
832.4000	77.2242
832.3000	77.3266
832.2000	77.4195
832.1000	77.5059
832.0000	77.5926
831.9000	77.6743
831.8000	77.7653
831.7000	77.8452
831.6000	77.933
831.5000	78.0283
831.4000	78.1094
831.3000	78.1847
831.2000	78.2634
831.1000	78.3379
831.0000	78.4073
830.9000	78.472
830.8000	78.5494
830.7000	78.6202
830.6000	78.6915
830.5000	78.7572
830.4000	78.8237
830.3000	78.8831
830.2000	78.94
830.1000	78.9964
830.0000	79.05
829.9000	79.0979
829.8000	79.1442
829.7000	79.1906
829.6000	79.23
829.5000	79.2585
829.4000	79.2959
829.3000	79.3337
829.2000	79.3593
829.1000	79.3765
829.0000	79.3945
828.9000	79.4113
828.8000	79.4277
828.7000	79.4481
828.6000	79.4606
828.5000	79.4617
828.4000	79.4668
828.3000	79.4658
828.2000	79.462
828.1000	79.4599
828.0000	79.4555
827.9000	79.4484
827.8000	79.438
827.7000	79.4187
827.6000	79.3984
827.5000	79.3735
827.4000	79.3504
827.3000	79.3238
827.2000	79.2932
827.1000	79.257
827.0000	79.2214
826.9000	79.1966
826.8000	79.1555
826.7000	79.1149
826.6000	79.0738
826.5000	79.0244
826.4000	78.97
826.3000	78.9213
826.2000	78.8655
826.1000	78.8086
826.0000	78.7478
825.9000	78.6963
825.8000	78.6186
825.7000	78.551
825.6000	78.4776
825.5000	78.4041
825.4000	78.3185
825.3000	78.2279
825.2000	78.1487
825.1000	78.0676
825.0000	77.9853
824.9000	77.8956
824.8000	77.8064
824.7000	77.7111
824.6000	77.6188
824.5000	77.5245
824.4000	77.4237
824.3000	77.3219
824.2000	77.2255
824.1000	77.1315
824.0000	77.027
823.9000	76.9256
823.8000	76.8242
823.7000	76.7262
823.6000	76.6168
823.5000	76.5019
823.4000	76.3837
823.3000	76.2779
823.2000	76.1677
823.1000	76.055
823.0000	75.9336
822.9000	75.8213
822.8000	75.7111
822.7000	75.5959
822.6000	75.4878
822.5000	75.3672
822.4000	75.2553
822.3000	75.1329
822.2000	75.0177
822.1000	74.8938
822.0000	74.7724
821.9000	74.6543
821.8000	74.5412
821.7000	74.4132
821.6000	74.2946
821.5000	74.1698
821.4000	74.0513
821.3000	73.922
821.2000	73.7974
821.1000	73.6741
821.0000	73.5494
820.9000	73.4248
820.8000	73.3043
820.7000	73.1772
820.6000	73.0619
820.5000	72.9498
820.4000	72.8283
820.3000	72.7139
820.2000	72.5951
820.1000	72.4785
820.0000	72.3636
819.9000	72.2599
819.8000	72.1529
819.7000	72.0542
819.6000	71.9518
819.5000	71.846
819.4000	71.7479
819.3000	71.6462
819.2000	71.5455
819.1000	71.4592
819.0000	71.3568
818.9000	71.2564
818.8000	71.1669
818.7000	71.0726
818.6000	70.9804
818.5000	70.8985
818.4000	70.8201
818.3000	70.7348
818.2000	70.6552
818.1000	70.5776
818.0000	70.505
817.9000	70.4344
817.8000	70.3661
817.7000	70.2956
817.6000	70.2373
817.5000	70.1726
817.4000	70.1174
817.3000	70.0645
817.2000	70.0148
817.1000	69.9643
817.0000	69.9171
816.9000	69.8702
816.8000	69.8199
816.7000	69.7735
816.6000	69.7351
816.5000	69.6976
816.4000	69.6581
816.3000	69.6245
816.2000	69.5879
816.1000	69.567
816.0000	69.5397
815.9000	69.5177
815.8000	69.4971
815.7000	69.4824
815.6000	69.4639
815.5000	69.4483
815.4000	69.4375
815.3000	69.4299
815.2000	69.426
815.1000	69.4335
815.0000	69.4353
814.9000	69.4389
814.8000	69.4493
814.7000	69.4603
814.6000	69.4798
814.5000	69.4945
814.4000	69.5112
814.3000	69.5379
814.2000	69.5608
814.1000	69.5827
814.0000	69.6097
813.9000	69.6531
813.8000	69.6988
813.7000	69.7407
813.6000	69.7848
813.5000	69.8294
813.4000	69.8755
813.3000	69.9256
813.2000	69.9772
813.1000	70.0308
813.0000	70.0865
812.9000	70.1511
812.8000	70.2125
812.7000	70.2746
812.6000	70.3478
812.5000	70.4176
812.4000	70.4946
812.3000	70.5651
812.2000	70.6425
812.1000	70.7235
812.0000	70.8
811.9000	70.8736
811.8000	70.9595
811.7000	71.0462
811.6000	71.1338
811.5000	71.2302
811.4000	71.3178
811.3000	71.4078
811.2000	71.4977
811.1000	71.5943
811.0000	71.695
810.9000	71.8023
810.8000	71.9091
810.7000	72.0172
810.6000	72.1153
810.5000	72.225
810.4000	72.341
810.3000	72.4585
810.2000	72.5745
810.1000	72.6919
810.0000	72.8077
809.9000	72.9231
809.8000	73.0486
809.7000	73.1706
809.6000	73.2965
809.5000	73.4139
809.4000	73.5344
809.3000	73.6554
809.2000	73.7743
809.1000	73.8957
809.0000	74.0222
808.9000	74.1448
808.8000	74.2668
808.7000	74.3902
808.6000	74.5153
808.5000	74.6326
808.4000	74.7639
808.3000	74.8868
808.2000	75.0133
808.1000	75.1353
808.0000	75.265
807.9000	75.3957
807.8000	75.5177
807.7000	75.6385
807.6000	75.7595
807.5000	75.8828
807.4000	76.0063
807.3000	76.1223
807.2000	76.2408
807.1000	76.3558
807.0000	76.4768
806.9000	76.5981
806.8000	76.7066
806.7000	76.8236
806.6000	76.9322
806.5000	77.0392
806.4000	77.1383
806.3000	77.2363
806.2000	77.3423
806.1000	77.446
806.0000	77.551
805.9000	77.6495
805.8000	77.7358
805.7000	77.8322
805.6000	77.9233
805.5000	78.0257
805.4000	78.1066
805.3000	78.1951
805.2000	78.2789
805.1000	78.354
805.0000	78.4285
804.9000	78.4995
804.8000	78.5775
804.7000	78.6494
804.6000	78.7051
804.5000	78.7722
804.4000	78.8287
804.3000	78.8865
804.2000	78.9592
804.1000	79.0128
804.0000	79.0644
803.9000	79.0993
803.8000	79.149
803.7000	79.1865
803.6000	79.2127
803.5000	79.2487
803.4000	79.2774
803.3000	79.3186
803.2000	79.3428
803.1000	79.362
803.0000	79.3874
802.9000	79.3951
802.8000	79.4077
802.7000	79.4127
802.6000	79.4085
802.5000	79.4079
802.4000	79.4061
802.3000	79.4026
802.2000	79.3872
802.1000	79.3766
802.0000	79.3715
801.9000	79.3559
801.8000	79.3403
801.7000	79.3071
801.6000	79.274
801.5000	79.2415
801.4000	79.1978
801.3000	79.1628
801.2000	79.1236
801.1000	79.0844
801.0000	79.0454
800.9000	78.9897
800.8000	78.9369
800.7000	78.884
800.6000	78.824
800.5000	78.7587
800.4000	78.69
800.3000	78.619
800.2000	78.5433
800.1000	78.4676
800.0000	78.3915
799.9000	78.3186
799.8000	78.2418
799.7000	78.1517
799.6000	78.0584
799.5000	77.9605
799.4000	77.8537
799.3000	77.7678
799.2000	77.6659
799.1000	77.5609
799.0000	77.4628
798.9000	77.352
798.8000	77.246
798.7000	77.139
798.6000	77.0306
798.5000	76.9222
798.4000	76.8056
798.3000	76.6881
798.2000	76.5716
798.1000	76.4544
798.0000	76.3392
797.9000	76.2203
797.8000	76.1068
797.7000	75.98
797.6000	75.8582
797.5000	75.7413
797.4000	75.6128
797.3000	75.4946
797.2000	75.3691
797.1000	75.2434
797.0000	75.1173
796.9000	74.9884
796.8000	74.8711
796.7000	74.7475
796.6000	74.618
796.5000	74.4945
796.4000	74.3691
796.3000	74.2457
796.2000	74.121
796.1000	73.9928
796.0000	73.867
795.9000	73.7396
795.8000	73.6079
795.7000	73.4827
795.6000	73.3585
795.5000	73.2363
795.4000	73.11
795.3000	72.9926
795.2000	72.8594
795.1000	72.7355
795.0000	72.6226
794.9000	72.5077
794.8000	72.3921
794.7000	72.2736
794.6000	72.1559
794.5000	72.0473
794.4000	71.9359
794.3000	71.8233
794.2000	71.7242
794.1000	71.6209
794.0000	71.5188
793.9000	71.4166
793.8000	71.3246
793.7000	71.2261
793.6000	71.1444
793.5000	71.0558
793.4000	70.968
793.3000	70.8818
793.2000	70.8029
793.1000	70.7296
793.0000	70.6567
792.9000	70.5792
792.8000	70.5095
792.7000	70.439
792.6000	70.3744
792.5000	70.3109
792.4000	70.2491
792.3000	70.1928
792.2000	70.1375
792.1000	70.0859
792.0000	70.0284
791.9000	69.9819
791.8000	69.9322
791.7000	69.8925
791.6000	69.8503
791.5000	69.8116
791.4000	69.7759
791.3000	69.7476
791.2000	69.7267
791.1000	69.7106
791.0000	69.6868
790.9000	69.6769
790.8000	69.6657
790.7000	69.6553
790.6000	69.6449
790.5000	69.6398
790.4000	69.6468
790.3000	69.6528
790.2000	69.6649
790.1000	69.6794
790.0000	69.6963
789.9000	69.7103
789.8000	69.7295
789.7000	69.7522
789.6000	69.7746
789.5000	69.7972
789.4000	69.8304
789.3000	69.8543
789.2000	69.8916
789.1000	69.9319
789.0000	69.9777
788.9000	70.0278
788.8000	70.0727
788.7000	70.1199
788.6000	70.1742
788.5000	70.2257
788.4000	70.2776
788.3000	70.3416
788.2000	70.4001
788.1000	70.4734
788.0000	70.5387
787.9000	70.618
787.8000	70.6966
787.7000	70.7785
787.6000	70.8574
787.5000	70.9435
787.4000	71.0303
787.3000	71.1224
787.2000	71.2121
787.1000	71.3099
787.0000	71.4061
786.9000	71.4997
786.8000	71.5985
786.7000	71.7001
786.6000	71.8111
786.5000	71.9096
786.4000	72.0212
786.3000	72.1279
786.2000	72.2364
786.1000	72.3481
786.0000	72.4686
785.9000	72.582
785.8000	72.699
785.7000	72.8137
785.6000	72.9332
785.5000	73.0495
785.4000	73.1684
785.3000	73.2955
785.2000	73.4246
785.1000	73.5434
785.0000	73.6716
784.9000	73.8018
784.8000	73.9268
784.7000	74.0489
784.6000	74.1778
784.5000	74.2988
784.4000	74.4238
784.3000	74.5457
784.2000	74.6711
784.1000	74.7918
784.0000	74.9176
783.9000	75.0463
783.8000	75.1751
783.7000	75.2938
783.6000	75.4183
783.5000	75.5493
783.4000	75.669
783.3000	75.7924
783.2000	75.9192
783.1000	76.0464
783.0000	76.1652
782.9000	76.2889
782.8000	76.4028
782.7000	76.5269
782.6000	76.6439
782.5000	76.7639
782.4000	76.8783
782.3000	76.989
782.2000	77.0922
782.1000	77.2118
782.0000	77.319
781.9000	77.4226
781.8000	77.5298
781.7000	77.6312
781.6000	77.7254
781.5000	77.8249
781.4000	77.9227
781.3000	78.023
781.2000	78.1195
781.1000	78.2025
781.0000	78.2875
780.9000	78.3654
780.8000	78.4487
780.7000	78.5253
780.6000	78.6083
780.5000	78.6744
780.4000	78.7398
780.3000	78.8045
780.2000	78.8631
780.1000	78.9159
780.0000	78.9698
779.9000	79.0179
779.8000	79.0579
779.7000	79.0999
779.6000	79.1356
779.5000	79.169
779.4000	79.2001
779.3000	79.2346
779.2000	79.262
779.1000	79.2866
779.0000	79.305
778.9000	79.3195
778.8000	79.3361
778.7000	79.3432
778.6000	79.3484
778.5000	79.355
778.4000	79.3533
778.3000	79.3459
778.2000	79.3335
778.1000	79.3181
778.0000	79.2978
777.9000	79.2816
777.8000	79.2537
777.7000	79.2221
777.6000	79.1859
777.5000	79.149
777.4000	79.1029
777.3000	79.0579
777.2000	79.0061
777.1000	78.9554
777.0000	78.8983
776.9000	78.8375
776.8000	78.7744
776.7000	78.7088
776.6000	78.6469
776.5000	78.574
776.4000	78.5052
776.3000	78.4275
776.2000	78.3525
776.1000	78.2688
776.0000	78.1792
775.9000	78.0935
775.8000	78.0025
775.7000	77.9072
775.6000	77.8091
775.5000	77.715
775.4000	77.612
775.3000	77.5096
775.2000	77.4044
775.1000	77.2939
775.0000	77.1889
774.9000	77.0795
774.8000	76.9659
774.7000	76.845
774.6000	76.7233
774.5000	76.6039
774.4000	76.4832
774.3000	76.3524
774.2000	76.2335
774.1000	76.1136
774.0000	75.9904
773.9000	75.8577
773.8000	75.7349
773.7000	75.6062
773.6000	75.4816
773.5000	75.3607
773.4000	75.2317
773.3000	75.102
773.2000	74.9717
773.1000	74.8439
773.0000	74.7252
772.9000	74.5986
772.8000	74.4805
772.7000	74.3535
772.6000	74.227
772.5000	74.1008
772.4000	73.9751
772.3000	73.8502
772.2000	73.7225
772.1000	73.6019
772.0000	73.4807
771.9000	73.3547
771.8000	73.2283
771.7000	73.1042
771.6000	72.9836
771.5000	72.8694
771.4000	72.7466
771.3000	72.6331
771.2000	72.5151
771.1000	72.4043
771.0000	72.2835
770.9000	72.1643
770.8000	72.055
770.7000	71.9492
770.6000	71.8415
770.5000	71.737
770.4000	71.6296
770.3000	71.5179
770.2000	71.4192
770.1000	71.3226
770.0000	71.2246
769.9000	71.1346
769.8000	71.0411
769.7000	70.9512
769.6000	70.8646
769.5000	70.7827
769.4000	70.7107
769.3000	70.6425
769.2000	70.5726
769.1000	70.5042
769.0000	70.4404
768.9000	70.3744
768.8000	70.3161
768.7000	70.2732
768.6000	70.2179
768.5000	70.1694
768.4000	70.1289
768.3000	70.0829
768.2000	70.0446
768.1000	70.0114
768.0000	69.9772
767.9000	69.9526
767.8000	69.9284
767.7000	69.9066
767.6000	69.8813
767.5000	69.8697
767.4000	69.8593
767.3000	69.8503
767.2000	69.8404
767.1000	69.8369
767.0000	69.8425
766.9000	69.845
766.8000	69.8516
766.7000	69.8613
766.6000	69.8771
766.5000	69.8943
766.4000	69.9144
766.3000	69.9349
766.2000	69.958
766.1000	69.9857
766.0000	70.0208
765.9000	70.0554
765.8000	70.0971
765.7000	70.1401
765.6000	70.195
765.5000	70.2438
765.4000	70.3005
765.3000	70.3621
765.2000	70.4204
765.1000	70.4883
765.0000	70.5538
764.9000	70.6223
764.8000	70.697
764.7000	70.7724
764.6000	70.8547
764.5000	70.9382
764.4000	71.0258
764.3000	71.1104
764.2000	71.2009
764.1000	71.297
764.0000	71.3874
763.9000	71.4896
763.8000	71.5893
763.7000	71.6976
763.6000	71.801
763.5000	71.9047
763.4000	72.0183
763.3000	72.1325
763.2000	72.2472
763.1000	72.3656
763.0000	72.4867
762.9000	72.6082
762.8000	72.7331
762.7000	72.8651
762.6000	72.9919
762.5000	73.1133
762.4000	73.2455
762.3000	73.3722
762.2000	73.4998
762.1000	73.6276
762.0000	73.76
761.9000	73.8948
761.8000	74.0196
761.7000	74.1483
761.6000	74.2848
761.5000	74.4152
761.4000	74.5432
761.3000	74.6784
761.2000	74.8073
761.1000	74.9306
761.0000	75.058
760.9000	75.1947
760.8000	75.3287
760.7000	75.4626
760.6000	75.5938
760.5000	75.7163
760.4000	75.8499
760.3000	75.977
760.2000	76.1087
760.1000	76.2368
760.0000	76.363
759.9000	76.4841
759.8000	76.6093
759.7000	76.7248
759.6000	76.846
759.5000	76.9649
759.4000	77.0796
759.3000	77.189
759.2000	77.2943
759.1000	77.4002
759.0000	77.5087
758.9000	77.6107
758.8000	77.7098
758.7000	77.8099
758.6000	77.9061
758.5000	77.9992
758.4000	78.0883
758.3000	78.1815
758.2000	78.2684
758.1000	78.3475
758.0000	78.4244
757.9000	78.5033
757.8000	78.5767
757.7000	78.6477
757.6000	78.7132
757.5000	78.7713
757.4000	78.8258
757.3000	78.8899
757.2000	78.9335
757.1000	78.9775
757.0000	79.0199
756.9000	79.0583
756.8000	79.0935
756.7000	79.1238
756.6000	79.1463
756.5000	79.1707
756.4000	79.1879
756.3000	79.1987
756.2000	79.2151
756.1000	79.2263
756.0000	79.2296
755.9000	79.2355
755.8000	79.2309
755.7000	79.2189
755.6000	79.2119
755.5000	79.1975
755.4000	79.1781
755.3000	79.1525
755.2000	79.1252
755.1000	79.0905
755.0000	79.0582
754.9000	79.0229
754.8000	78.9831
754.7000	78.936
754.6000	78.8786
754.5000	78.8271
754.4000	78.7717
754.3000	78.7067
754.2000	78.642
754.1000	78.5664
754.0000	78.5027
753.9000	78.4329
753.8000	78.3572
753.7000	78.277
753.6000	78.1896
753.5000	78.1019
753.4000	78.0075
753.3000	77.9153
753.2000	77.8173
753.1000	77.7144
753.0000	77.6092
752.9000	77.4985
752.8000	77.3868
752.7000	77.2788
752.6000	77.161
752.5000	77.0488
752.4000	76.9191
752.3000	76.792
752.2000	76.6684
752.1000	76.5399
752.0000	76.4114
751.9000	76.2854
751.8000	76.1555
751.7000	76.0222
751.6000	75.8891
751.5000	75.7652
751.4000	75.6371
751.3000	75.502
751.2000	75.374
751.1000	75.2361
751.0000	75.1088
750.9000	74.9752
750.8000	74.8423
750.7000	74.7079
750.6000	74.5688
750.5000	74.4388
750.4000	74.3099
750.3000	74.1735
750.2000	74.0434
750.1000	73.9067
750.0000	73.7703
749.9000	73.6307
749.8000	73.4924
749.7000	73.3596
749.6000	73.2235
749.5000	73.0939
749.4000	72.9612
749.3000	72.8307
749.2000	72.7063
749.1000	72.5809
749.0000	72.4655
748.9000	72.3458
748.8000	72.2244
748.7000	72.1074
748.6000	71.9893
748.5000	71.8816
748.4000	71.7785
748.3000	71.6783
748.2000	71.582
748.1000	71.4789
748.0000	71.3812
747.9000	71.2858
747.8000	71.1991
747.7000	71.1159
747.6000	71.0352
747.5000	70.9542
747.4000	70.8713
747.3000	70.7942
747.2000	70.7207
747.1000	70.6569
747.0000	70.5928
746.9000	70.5293
746.8000	70.469
746.7000	70.4093
746.6000	70.3563
746.5000	70.311
746.4000	70.2712
746.3000	70.2296
746.2000	70.1872
746.1000	70.1567
746.0000	70.1256
745.9000	70.1036
745.8000	70.0837
745.7000	70.0687
745.6000	70.0565
745.5000	70.046
745.4000	70.0421
745.3000	70.0407
745.2000	70.0403
745.1000	70.0447
745.0000	70.0573
744.9000	70.0725
744.8000	70.0902
744.7000	70.1084
744.6000	70.1387
744.5000	70.1646
744.4000	70.1987
744.3000	70.2299
744.2000	70.2672
744.1000	70.3037
744.0000	70.3528
743.9000	70.4035
743.8000	70.4588
743.7000	70.5183
743.6000	70.5832
743.5000	70.6486
743.4000	70.715
743.3000	70.787
743.2000	70.8608
743.1000	70.9441
743.0000	71.0282
742.9000	71.1198
742.8000	71.2093
742.7000	71.3065
742.6000	71.401
742.5000	71.5056
742.4000	71.608
742.3000	71.7113
742.2000	71.8187
742.1000	71.9263
742.0000	72.0387
741.9000	72.1549
741.8000	72.274
741.7000	72.3938
741.6000	72.5119
741.5000	72.6321
741.4000	72.7537
741.3000	72.8715
741.2000	72.9921
741.1000	73.1181
741.0000	73.2524
740.9000	73.3785
740.8000	73.504
740.7000	73.6326
740.6000	73.7609
740.5000	73.8979
740.4000	74.0341
740.3000	74.1706
740.2000	74.3029
740.1000	74.4374
740.0000	74.6416
739.9000	74.7762
739.8000	74.9152
739.7000	75.0524
739.6000	75.1924
739.5000	75.3272
739.4000	75.4608
739.3000	75.5968
739.2000	75.727
739.1000	75.8638
739.0000	75.9944
738.9000	76.1244
738.8000	76.2503
738.7000	76.3838
738.6000	76.514
738.5000	76.6415
738.4000	76.7528
738.3000	76.8708
738.2000	76.9843
738.1000	77.1036
738.0000	77.22
737.9000	77.3319
737.8000	77.4462
737.7000	77.5513
737.6000	77.6592
737.5000	77.752
737.4000	77.8503
737.3000	77.9487
737.2000	78.0414
737.1000	78.1296
737.0000	78.2116
736.9000	78.2922
736.8000	78.3776
736.7000	78.4556
736.6000	78.5299
736.5000	78.6005
736.4000	78.6672
736.3000	78.7334
736.2000	78.79
736.1000	78.847
736.0000	78.8947
735.9000	78.9476
735.8000	78.9914
735.7000	79.029
735.6000	79.06
735.5000	79.0847
735.4000	79.1122
735.3000	79.1345
735.2000	79.148
735.1000	79.1601
735.0000	79.1671
734.9000	79.1715
734.8000	79.1674
734.7000	79.1585
734.6000	79.1468
734.5000	79.1289
734.4000	79.11
734.3000	79.0839
734.2000	79.059
734.1000	79.0255
734.0000	78.9939
733.9000	78.9523
733.8000	78.9061
733.7000	78.8564
733.6000	78.8026
733.5000	78.7377
