TITLE	n-GaN
DATA TYPE	ULTRAVIOLET SPECTRUM
ORIGIN	JASCO
OWNER	
DATE	19/12/06
TIME	15:18:42
SPECTROMETER/DATA SYSTEM	
RESOLUTION	
DELTAX	-0.5
XUNITS	NANOMETERS
YUNITS	TRANSMITTANCE
FIRSTX	 2500.0000
LASTX	  350.0000
NPOINTS	    4301
FIRSTY	    85.58065
MAXY	    87.85333
MINY	     0.04718
XYDATA
2500.0000	85.5807
2499.5000	83.1591
2499.0000	80.1678
2498.5000	79.2963
2498.0000	80.9664
2497.5000	84.0189
2497.0000	86.2913
2496.5000	86.7196
2496.0000	84.866
2495.5000	82.1323
2495.0000	79.6606
2494.5000	79.1476
2494.0000	80.4644
2493.5000	83.5504
2493.0000	85.858
2492.5000	86.4819
2492.0000	84.59
2491.5000	81.2856
2491.0000	78.421
2490.5000	78.0853
2490.0000	79.5722
2489.5000	82.7327
2489.0000	85.0402
2488.5000	85.63
2488.0000	83.8096
2487.5000	81.1323
2487.0000	78.5015
2486.5000	77.7717
2486.0000	79.1998
2485.5000	82.1745
2485.0000	85.0694
2484.5000	85.4186
2484.0000	83.5399
2483.5000	80.3146
2483.0000	77.4636
2482.5000	76.7076
2482.0000	78.4275
2481.5000	81.7544
2481.0000	84.1866
2480.5000	85.3615
2480.0000	82.8399
2479.5000	79.5568
2479.0000	76.3911
2478.5000	76.1801
2478.0000	77.7242
2477.5000	80.948
2477.0000	83.5855
2476.5000	84.0763
2476.0000	81.963
2475.5000	78.9318
2475.0000	75.6708
2474.5000	75.1966
2474.0000	76.5352
2473.5000	80.2327
2473.0000	82.8162
2472.5000	83.6024
2472.0000	81.5549
2471.5000	78.0375
2471.0000	74.9344
2470.5000	73.9509
2470.0000	76.3654
2469.5000	79.6024
2469.0000	82.8876
2468.5000	82.9751
2468.0000	81.2957
2467.5000	77.4345
2467.0000	74.0746
2466.5000	73.1677
2466.0000	74.8693
2465.5000	78.4133
2465.0000	81.2378
2464.5000	81.7863
2464.0000	80.0474
2463.5000	76.7776
2463.0000	73.7108
2462.5000	72.8426
2462.0000	74.6038
2461.5000	78.4636
2461.0000	81.2984
2460.5000	81.6832
2460.0000	79.1984
2459.5000	75.4828
2459.0000	72.5716
2458.5000	72.3714
2458.0000	74.6337
2457.5000	78.0663
2457.0000	80.8758
2456.5000	80.687
2456.0000	77.8145
2455.5000	74.369
2455.0000	71.8182
2454.5000	71.8918
2454.0000	74.5647
2453.5000	78.3383
2453.0000	80.6394
2452.5000	79.5415
2452.0000	76.3355
2451.5000	72.339
2451.0000	70.6244
2450.5000	71.8146
2450.0000	74.8555
2449.5000	78.3807
2449.0000	79.4694
2448.5000	78.0341
2448.0000	74.1748
2447.5000	70.9669
2447.0000	70.2513
2446.5000	72.3733
2446.0000	76.2115
2445.5000	78.9142
2445.0000	79.1893
2444.5000	76.6901
2444.0000	72.8232
2443.5000	69.9986
2443.0000	70.0707
2442.5000	72.6424
2442.0000	76.3511
2441.5000	78.4324
2441.0000	78.4954
2440.5000	75.0174
2440.0000	71.5852
2439.5000	69.2784
2439.0000	69.7409
2438.5000	73.179
2438.0000	76.8604
2437.5000	78.6016
2437.0000	77.0852
2436.5000	73.5949
2436.0000	69.9392
2435.5000	69.1026
2435.0000	70.5799
2434.5000	73.9076
2434.0000	77.0988
2433.5000	77.8247
2433.0000	76.2526
2432.5000	72.4467
2432.0000	69.3584
2431.5000	68.6315
2431.0000	71.3446
2430.5000	75.0576
2430.0000	77.7001
2429.5000	77.5378
2429.0000	74.5652
2428.5000	70.6905
2428.0000	68.3225
2427.5000	68.9796
2427.0000	72.3776
2426.5000	75.7596
2426.0000	77.5241
2425.5000	76.4187
2425.0000	73.1608
2424.5000	69.3863
2424.0000	68.2918
2423.5000	69.954
2423.0000	73.8595
2422.5000	76.9988
2422.0000	77.4427
2421.5000	75.2218
2421.0000	71.3096
2420.5000	68.3704
2420.0000	68.1791
2419.5000	71.1155
2419.0000	74.611
2418.5000	76.9153
2418.0000	76.2476
2417.5000	73.7125
2417.0000	69.7078
2416.5000	67.9322
2416.0000	68.8635
2415.5000	72.6879
2415.0000	75.8995
2414.5000	77.1884
2414.0000	75.14
2413.5000	71.4379
2413.0000	68.5826
2412.5000	67.7174
2412.0000	70.2126
2411.5000	73.9003
2411.0000	76.4936
2410.5000	76.445
2410.0000	73.8839
2409.5000	70.2038
2409.0000	67.9267
2408.5000	68.2948
2408.0000	71.3375
2407.5000	75.1504
2407.0000	77.048
2406.5000	75.8304
2406.0000	72.5049
2405.5000	69.11
2405.0000	68.4005
2404.5000	70.1539
2404.0000	73.5556
2403.5000	76.7225
2403.0000	76.9155
2402.5000	74.1001
2402.0000	70.317
2401.5000	68.1801
2401.0000	69.1327
2400.5000	72.5286
2400.0000	75.8703
2399.5000	77.2619
2399.0000	75.8256
2398.5000	72.5766
2398.0000	69.6394
2397.5000	68.7049
2397.0000	70.949
2396.5000	74.7599
2396.0000	77.6029
2395.5000	77.4056
2395.0000	74.2502
2394.5000	70.6689
2394.0000	69.1363
2393.5000	70.7712
2393.0000	74.1668
2392.5000	77.0759
2392.0000	77.7751
2391.5000	75.4306
2391.0000	71.9905
2390.5000	68.9816
2390.0000	69.3526
2389.5000	72.4797
2389.0000	76.147
2388.5000	78.0228
2388.0000	76.7042
2387.5000	73.4426
2387.0000	70.4687
2386.5000	69.6706
2386.0000	72.0412
2385.5000	75.6055
2385.0000	77.9985
2384.5000	77.6523
2384.0000	75.0941
2383.5000	71.6966
2383.0000	70.2504
2382.5000	71.8742
2382.0000	75.2196
2381.5000	78.5147
2381.0000	79.1272
2380.5000	76.8401
2380.0000	73.3768
2379.5000	71.1701
2379.0000	71.8305
2378.5000	74.4465
2378.0000	77.5111
2377.5000	79.4842
2377.0000	78.0193
2376.5000	75.2893
2376.0000	72.1319
2375.5000	71.8104
2375.0000	74.0959
2374.5000	77.7639
2374.0000	79.6458
2373.5000	79.1652
2373.0000	76.4836
2372.5000	73.922
2372.0000	72.6805
2371.5000	74.4434
2371.0000	77.7312
2370.5000	80.3648
2370.0000	80.6893
2369.5000	78.0573
2369.0000	75.2328
2368.5000	73.3109
2368.0000	74.7201
2367.5000	77.4333
2367.0000	80.4017
2366.5000	80.833
2366.0000	78.936
2365.5000	75.7516
2365.0000	73.7744
2364.5000	74.6623
2364.0000	77.6078
2363.5000	80.6342
2363.0000	81.8636
2362.5000	80.32
2362.0000	77.5309
2361.5000	75.4886
2361.0000	75.2729
2360.5000	77.637
2360.0000	80.4438
2359.5000	82.0533
2359.0000	81.436
2358.5000	78.6064
2358.0000	76.2798
2357.5000	75.5408
2357.0000	77.3258
2356.5000	80.273
2356.0000	82.5929
2355.5000	82.7335
2355.0000	80.17
2354.5000	77.4321
2354.0000	76.3854
2353.5000	77.4982
2353.0000	80.471
2352.5000	83.0243
2352.0000	83.9543
2351.5000	82.1468
2351.0000	79.284
2350.5000	77.3608
2350.0000	77.8592
2349.5000	79.6959
2349.0000	82.5037
2348.5000	83.694
2348.0000	83.0584
2347.5000	80.5813
2347.0000	78.4838
2346.5000	77.9193
2346.0000	80.5661
2345.5000	83.1963
2345.0000	84.3671
2344.5000	83.443
2344.0000	81.0407
2343.5000	79.017
2343.0000	78.6938
2342.5000	80.9268
2342.0000	84.2391
2341.5000	85.9965
2341.0000	84.9899
2340.5000	82.5778
2340.0000	80.2952
2339.5000	79.8518
2339.0000	81.9399
2338.5000	84.6823
2338.0000	86.3228
2337.5000	85.385
2337.0000	82.6315
2336.5000	80.7471
2336.0000	80.5961
2335.5000	82.5488
2335.0000	84.9376
2334.5000	86.3473
2334.0000	85.6369
2333.5000	83.4545
2333.0000	81.5946
2332.5000	80.7837
2332.0000	82.0949
2331.5000	84.4649
2331.0000	86.2133
2330.5000	85.8674
2330.0000	84.332
2329.5000	81.8072
2329.0000	81.6716
2328.5000	82.9436
2328.0000	85.5865
2327.5000	87.073
2327.0000	86.5938
2326.5000	84.714
2326.0000	83.0073
2325.5000	82.5247
2325.0000	83.8211
2324.5000	85.6874
2324.0000	87.2303
2323.5000	86.8917
2323.0000	85.1698
2322.5000	83.023
2322.0000	82.9224
2321.5000	83.9642
2321.0000	86.3135
2320.5000	87.5694
2320.0000	87.3778
2319.5000	85.1985
2319.0000	83.7587
2318.5000	83.4217
2318.0000	85.0855
2317.5000	86.8992
2317.0000	87.8253
2316.5000	86.6806
2316.0000	84.6023
2315.5000	83.0178
2315.0000	83.3749
2314.5000	85.1029
2314.0000	87.2949
2313.5000	87.8408
2313.0000	86.594
2312.5000	84.8227
2312.0000	83.3086
2311.5000	83.8524
2311.0000	85.506
2310.5000	87.2159
2310.0000	87.5416
2309.5000	86.363
2309.0000	84.3615
2308.5000	82.9363
2308.0000	83.6155
2307.5000	85.4598
2307.0000	87.5323
2306.5000	87.7866
2306.0000	86.5128
2305.5000	84.4043
2305.0000	82.9783
2304.5000	83.3061
2304.0000	85.5877
2303.5000	87.4264
2303.0000	87.796
2302.5000	86.3579
2302.0000	84.5284
2301.5000	83.5651
2301.0000	83.766
2300.5000	85.5559
2300.0000	87.5715
2299.5000	87.8533
2299.0000	86.1399
2298.5000	84.0558
2298.0000	82.5177
2297.5000	83.3433
2297.0000	85.1975
2296.5000	86.8915
2296.0000	87.1454
2295.5000	85.2834
2295.0000	83.515
2294.5000	82.1958
2294.0000	83.6792
2293.5000	85.5869
2293.0000	87.3675
2292.5000	86.6821
2292.0000	84.6007
2291.5000	82.6735
2291.0000	82.3064
2290.5000	84.1387
2290.0000	86.0369
2289.5000	86.7049
2289.0000	85.7098
2288.5000	83.5518
2288.0000	81.6721
2287.5000	81.6175
2287.0000	83.2152
2286.5000	85.1506
2286.0000	85.7577
2285.5000	84.222
2285.0000	81.7011
2284.5000	80.9228
2284.0000	81.6545
2283.5000	83.8578
2283.0000	85.352
2282.5000	84.6627
2282.0000	82.8355
2281.5000	80.9628
2281.0000	80.2674
2280.5000	81.5626
2280.0000	83.6827
2279.5000	84.962
2279.0000	84.018
2278.5000	81.7149
2278.0000	79.9623
2277.5000	80.1189
2277.0000	81.9751
2276.5000	83.695
2276.0000	84.4163
2275.5000	83.2509
2275.0000	80.7379
2274.5000	79.0882
2274.0000	79.2874
2273.5000	81.7331
2273.0000	83.2743
2272.5000	83.0902
2272.0000	80.9658
2271.5000	78.7664
2271.0000	77.6732
2270.5000	78.9503
2270.0000	81.1822
2269.5000	82.7681
2269.0000	82.0796
2268.5000	79.6706
2268.0000	77.4346
2267.5000	76.9767
2267.0000	78.5767
2266.5000	81.2189
2266.0000	82.2155
2265.5000	80.9552
2265.0000	78.7652
2264.5000	76.7953
2264.0000	77.1387
2263.5000	78.8935
2263.0000	80.7184
2262.5000	80.9519
2262.0000	79.3765
2261.5000	77.1229
2261.0000	75.8108
2260.5000	76.8111
2260.0000	79.0174
2259.5000	80.5899
2259.0000	79.9227
2258.5000	77.7713
2258.0000	75.4199
2257.5000	75.0123
2257.0000	76.8364
2256.5000	79.2026
2256.0000	79.9595
2255.5000	78.7039
2255.0000	75.9818
2254.5000	74.3484
2254.0000	75.1476
2253.5000	77.2744
2253.0000	79.3158
2252.5000	79.0575
2252.0000	76.4558
2251.5000	74.3654
2251.0000	73.6373
2250.5000	75.4174
2250.0000	77.6577
2249.5000	79.1301
2249.0000	77.9731
2248.5000	75.2118
2248.0000	73.0318
2247.5000	72.9873
2247.0000	75.3948
2246.5000	77.5975
2246.0000	78.1133
2245.5000	75.9603
2245.0000	73.3596
2244.5000	72.2341
2244.0000	73.3504
2243.5000	75.7958
2243.0000	77.2396
2242.5000	76.7134
2242.0000	74.246
2241.5000	72.4954
2241.0000	72.0626
2240.5000	73.971
2240.0000	76.303
2239.5000	77.0864
2239.0000	75.4916
2238.5000	72.704
2238.0000	71.2603
2237.5000	72.1131
2237.0000	74.5298
2236.5000	75.977
2236.0000	75.5429
2235.5000	73.2644
2235.0000	71.1769
2234.5000	71.0089
2234.0000	72.7317
2233.5000	75.0484
2233.0000	76.0019
2232.5000	74.1445
2232.0000	71.7726
2231.5000	70.6066
2231.0000	71.5622
2230.5000	73.828
2230.0000	75.2647
2229.5000	74.7918
2229.0000	72.0996
2228.5000	69.804
2228.0000	69.8786
2227.5000	72.0285
2227.0000	74.4294
2226.5000	74.7061
2226.0000	73.0822
2225.5000	70.3507
2225.0000	69.5619
2224.5000	70.9093
2224.0000	73.4026
2223.5000	74.8641
2223.0000	73.8206
2222.5000	71.3551
2222.0000	69.4925
2221.5000	70.1347
2221.0000	72.6435
2220.5000	74.6145
2220.0000	74.3296
2219.5000	71.8536
2219.0000	69.3129
2218.5000	69.3189
2218.0000	71.0939
2217.5000	73.6219
2217.0000	74.4853
2216.5000	73.1118
2216.0000	70.2632
2215.5000	69.4917
2215.0000	70.3414
2214.5000	73.0825
2214.0000	74.2857
2213.5000	73.4957
2213.0000	70.6793
2212.5000	69.3755
2212.0000	69.8023
2211.5000	71.953
2211.0000	74.0971
2210.5000	74.3013
2210.0000	72.1443
2209.5000	69.884
2209.0000	69.1276
2208.5000	70.8782
2208.0000	73.4931
2207.5000	74.4452
2207.0000	73.0869
2206.5000	70.6354
2206.0000	69.5085
2205.5000	70.8177
2205.0000	72.712
2204.5000	74.3299
2204.0000	73.3656
2203.5000	71.1399
2203.0000	69.8615
2202.5000	70.4614
2202.0000	72.6302
2201.5000	74.5513
2201.0000	73.7905
2200.5000	71.4856
2200.0000	69.8211
2199.5000	70.3576
2199.0000	72.0139
2198.5000	74.1124
2198.0000	74.3584
2197.5000	72.7246
2197.0000	70.834
2196.5000	70.3392
2196.0000	71.8815
2195.5000	74.1011
2195.0000	74.8291
2194.5000	73.3377
2194.0000	71.0779
2193.5000	70.4875
2193.0000	72.0321
2192.5000	74.4066
2192.0000	75.5626
2191.5000	74.6823
2191.0000	72.2916
2190.5000	71.0579
2190.0000	71.8925
2189.5000	74.1696
2189.0000	75.4774
2188.5000	75.0873
2188.0000	72.8546
2187.5000	71.2542
2187.0000	72.0496
2186.5000	74.2911
2186.0000	76.2878
2185.5000	76.2395
2185.0000	73.9801
2184.5000	72.274
2184.0000	71.8583
2183.5000	73.7917
2183.0000	76.1472
2182.5000	76.736
2182.0000	75.4237
2181.5000	73.1495
2181.0000	72.6657
2180.5000	74.1107
2180.0000	76.4623
2179.5000	77.849
2179.0000	76.3625
2178.5000	74.718
2178.0000	73.386
2177.5000	74.901
2177.0000	76.7062
2176.5000	77.5557
2176.0000	76.5708
2175.5000	74.6859
2175.0000	74.3741
2174.5000	75.4565
2174.0000	77.7109
2173.5000	78.9521
2173.0000	77.7855
2172.5000	76.1409
2172.0000	74.3655
2171.5000	75.5187
2171.0000	77.2248
2170.5000	79.3144
2170.0000	78.5782
2169.5000	76.9965
2169.0000	75.6799
2168.5000	76.1385
2168.0000	78.1307
2167.5000	79.8638
2167.0000	79.7513
2166.5000	78.2412
2166.0000	76.6415
2165.5000	76.9312
2165.0000	78.8783
2164.5000	80.3996
2164.0000	80.4007
2163.5000	78.6838
2163.0000	77.3101
2162.5000	77.7913
2162.0000	79.6666
2161.5000	81.4366
2161.0000	81.4881
2160.5000	80.0944
2160.0000	78.4783
2159.5000	78.546
2159.0000	80.5053
2158.5000	81.8612
2158.0000	82.1378
2157.5000	80.7333
2157.0000	79.4224
2156.5000	79.5894
2156.0000	81.2432
2155.5000	82.8297
2155.0000	82.5298
2154.5000	81.2093
2154.0000	80.0004
2153.5000	80.5615
2153.0000	82.2118
2152.5000	83.4246
2152.0000	83.3249
2151.5000	81.9219
2151.0000	80.6107
2150.5000	80.961
2150.0000	82.7529
2149.5000	83.8479
2149.0000	83.8287
2148.5000	82.3245
2148.0000	81.632
2147.5000	81.4904
2147.0000	83.096
2146.5000	84.3655
2146.0000	84.6358
2145.5000	83.2173
2145.0000	82.1129
2144.5000	82.4414
2144.0000	84.2708
2143.5000	85.6353
2143.0000	85.3956
2142.5000	83.8834
2142.0000	82.5786
2141.5000	82.8194
2141.0000	84.301
2140.5000	85.9374
2140.0000	85.8057
2139.5000	84.6224
2139.0000	83.4905
2138.5000	83.914
2138.0000	85.223
2137.5000	86.0919
2137.0000	85.9676
2136.5000	84.57
2136.0000	83.4882
2135.5000	84.2923
2135.0000	85.4638
2134.5000	86.485
2134.0000	85.8864
2133.5000	84.7412
2133.0000	84.2634
2132.5000	85.1537
2132.0000	86.4022
2131.5000	86.8945
2131.0000	86.4566
2130.5000	85.0179
2130.0000	84.3098
2129.5000	84.8696
2129.0000	86.1573
2128.5000	86.7547
2128.0000	86.1618
2127.5000	85.0524
2127.0000	84.8236
2126.5000	85.5514
2126.0000	86.6807
2125.5000	86.8444
2125.0000	85.9829
2124.5000	85.2844
2124.0000	85.2607
2123.5000	86.1284
2123.0000	86.9413
2122.5000	86.8091
2122.0000	86.2486
2121.5000	85.0086
2121.0000	85.1809
2120.5000	86.0385
2120.0000	87.1939
2119.5000	86.6949
2119.0000	85.6224
2118.5000	84.6655
2118.0000	85.2823
2117.5000	86.3511
2117.0000	86.987
2116.5000	86.5268
2116.0000	85.517
2115.5000	84.9367
2115.0000	85.3279
2114.5000	86.4258
2114.0000	87.2734
2113.5000	86.3165
2113.0000	85.1763
2112.5000	84.4211
2112.0000	85.3747
2111.5000	86.3802
2111.0000	86.5402
2110.5000	85.5588
2110.0000	84.4785
2109.5000	83.8137
2109.0000	84.6072
2108.5000	85.532
2108.0000	85.9806
2107.5000	85.1919
2107.0000	84.2862
2106.5000	83.7677
2106.0000	84.7965
2105.5000	85.6914
2105.0000	85.5531
2104.5000	84.0707
2104.0000	83.119
2103.5000	83.0733
2103.0000	84.4982
2102.5000	85.3184
2102.0000	84.9166
2101.5000	83.1925
2101.0000	82.4761
2100.5000	83.0566
2100.0000	84.2036
2099.5000	84.4457
2099.0000	83.6655
2098.5000	82.6616
2098.0000	82.3547
2097.5000	83.0125
2097.0000	83.6839
2096.5000	83.2316
2096.0000	82.3047
2095.5000	81.0352
2095.0000	81.4431
2094.5000	82.2957
2094.0000	83.321
2093.5000	83.0993
2093.0000	81.5438
2092.5000	80.7793
2092.0000	81.3819
2091.5000	82.66
2091.0000	82.9952
2090.5000	81.7879
2090.0000	80.2319
2089.5000	80.1927
2089.0000	80.8743
2088.5000	82.0484
2088.0000	82.0221
2087.5000	80.6394
2087.0000	79.337
2086.5000	79.2419
2086.0000	80.3804
2085.5000	81.1176
2085.0000	80.6226
2084.5000	79.0763
2084.0000	78.4465
2083.5000	78.5034
2083.0000	79.8664
2082.5000	80.0491
2082.0000	79.1823
2081.5000	77.955
2081.0000	77.5485
2080.5000	78.6861
2080.0000	79.6326
2079.5000	79.299
2079.0000	77.8244
2078.5000	76.7346
2078.0000	76.9948
2077.5000	78.6497
2077.0000	79.6656
2076.5000	78.6963
2076.0000	76.9887
2075.5000	76.0823
2075.0000	76.7526
2074.5000	77.9994
2074.0000	78.2717
2073.5000	76.7263
2073.0000	75.4104
2072.5000	75.0629
2072.0000	76.0344
2071.5000	77.1504
2071.0000	76.771
2070.5000	75.5916
2070.0000	74.5721
2069.5000	74.9768
2069.0000	75.9609
2068.5000	76.4527
2068.0000	75.8992
2067.5000	74.5935
2067.0000	74.0871
2066.5000	74.7129
2066.0000	76.1811
2065.5000	76.4571
2065.0000	75.0999
2064.5000	73.6544
2064.0000	73.7516
2063.5000	74.7975
2063.0000	75.5719
2062.5000	74.6733
2062.0000	73.4859
2061.5000	72.8781
2061.0000	73.7277
2060.5000	74.6735
2060.0000	74.8554
2059.5000	73.774
2059.0000	72.413
2058.5000	72.4903
2058.0000	73.5274
2057.5000	74.5536
2057.0000	73.7164
2056.5000	72.5227
2056.0000	72.021
2055.5000	72.942
2055.0000	74.1441
2054.5000	74.019
2054.0000	72.903
2053.5000	71.3111
2053.0000	71.5196
2052.5000	72.7984
2052.0000	74.2838
2051.5000	73.9185
2051.0000	72.7473
2050.5000	71.4758
2050.0000	72.2612
2049.5000	73.1095
2049.0000	73.9834
2048.5000	72.5575
2048.0000	71.6741
2047.5000	71.1803
2047.0000	72.4614
2046.5000	73.4341
2046.0000	73.3524
2045.5000	71.8087
2045.0000	71.0295
2044.5000	71.4002
2044.0000	72.9383
2043.5000	73.0375
2043.0000	72.1683
2042.5000	70.733
2042.0000	70.86
2041.5000	71.9135
2041.0000	73.1412
2040.5000	72.6339
2040.0000	71.3002
2039.5000	70.6108
2039.0000	71.7513
2038.5000	72.7842
2038.0000	73.3375
2037.5000	72.1394
2037.0000	71.1072
2036.5000	71.1768
2036.0000	72.6772
2035.5000	73.2165
2035.0000	72.6882
2034.5000	71.3016
2034.0000	71.0321
2033.5000	72.1556
2033.0000	72.9324
2032.5000	73.0327
2032.0000	71.8345
2031.5000	71.5129
2031.0000	72.3357
2030.5000	73.5681
2030.0000	73.5266
2029.5000	72.5079
2029.0000	71.693
2028.5000	72.0792
2028.0000	72.9557
2027.5000	73.5826
2027.0000	72.7227
2026.5000	71.9998
2026.0000	72.0294
2025.5000	73.3485
2025.0000	74.2205
2024.5000	73.7341
2024.0000	72.6752
2023.5000	72.138
2023.0000	72.916
2022.5000	74.0152
2022.0000	74.4347
2021.5000	73.4831
2021.0000	72.6281
2020.5000	72.8322
2020.0000	73.7953
2019.5000	74.45
2019.0000	73.9262
2018.5000	73.479
2018.0000	73.4385
2017.5000	74.5709
2017.0000	75.1538
2016.5000	74.5634
2016.0000	73.6439
2015.5000	73.6192
2015.0000	74.6744
2014.5000	75.5709
2014.0000	75.4542
2013.5000	74.7243
2013.0000	74.0965
2012.5000	74.9635
2012.0000	76.2396
2011.5000	76.3373
2011.0000	75.9468
2010.5000	75.1135
2010.0000	75.5841
2009.5000	76.412
2009.0000	76.6975
2008.5000	76.0545
2008.0000	75.4646
2007.5000	75.8745
2007.0000	77.1698
2006.5000	77.7741
2006.0000	77.2491
2005.5000	76.4603
2005.0000	76.5057
2004.5000	77.9032
2004.0000	78.6209
2003.5000	78.7126
2003.0000	77.2284
2002.5000	76.7833
2002.0000	77.8901
2001.5000	78.7212
2001.0000	79.0107
2000.5000	78.3318
2000.0000	77.9943
1999.5000	78.7078
1999.0000	79.3535
1998.5000	79.5682
1998.0000	78.793
1997.5000	78.417
1997.0000	79.0166
1996.5000	80.0726
1996.0000	80.6313
1995.5000	79.8885
1995.0000	79.3398
1994.5000	79.4227
1994.0000	80.4324
1993.5000	81.1829
1993.0000	80.6133
1992.5000	79.8173
1992.0000	79.8796
1991.5000	80.7746
1991.0000	82.0145
1990.5000	81.7213
1990.0000	81.3688
1989.5000	81.2989
1989.0000	81.8921
1988.5000	82.3392
1988.0000	82.1466
1987.5000	81.5822
1987.0000	81.487
1986.5000	82.2205
1986.0000	82.9398
1985.5000	82.813
1985.0000	82.6418
1984.5000	82.4462
1984.0000	83.2838
1983.5000	83.7952
1983.0000	83.5609
1982.5000	82.8832
1982.0000	82.9999
1981.5000	83.7068
1981.0000	84.1076
1980.5000	83.5484
1980.0000	83.1506
1979.5000	83.0375
