TITLE	n-GaN
DATA TYPE	ULTRAVIOLET SPECTRUM
ORIGIN	JASCO
OWNER	
DATE	19/11/20
TIME	15:13:29
SPECTROMETER/DATA SYSTEM	
RESOLUTION	
DELTAX	-1
XUNITS	NANOMETERS
YUNITS	TRANSMITTANCE
FIRSTX	 2500.0000
LASTX	  300.0000
NPOINTS	    2201
FIRSTY	   100.46647
MAXY	   100.92569
MINY	    99.65479
XYDATA
2500.0000	100.466
2499.0000	100.332
2498.0000	100.341
2497.0000	100.335
2496.0000	100.282
2495.0000	100.247
2494.0000	100.231
2493.0000	100.261
2492.0000	100.315
2491.0000	100.286
2490.0000	100.327
2489.0000	100.274
2488.0000	100.328
2487.0000	100.334
2486.0000	100.36
2485.0000	100.424
2484.0000	100.333
2483.0000	100.475
2482.0000	100.513
2481.0000	100.476
2480.0000	100.417
2479.0000	100.385
2478.0000	100.393
2477.0000	100.441
2476.0000	100.372
2475.0000	100.36
2474.0000	100.382
2473.0000	100.317
2472.0000	100.341
2471.0000	100.314
2470.0000	100.257
2469.0000	100.268
2468.0000	100.226
2467.0000	100.236
2466.0000	100.244
2465.0000	100.306
2464.0000	100.327
2463.0000	100.331
2462.0000	100.38
2461.0000	100.486
2460.0000	100.385
2459.0000	100.396
2458.0000	100.32
2457.0000	100.287
2456.0000	100.237
2455.0000	100.288
2454.0000	100.252
2453.0000	100.341
2452.0000	100.347
2451.0000	100.37
2450.0000	100.421
2449.0000	100.409
2448.0000	100.382
2447.0000	100.402
2446.0000	100.403
2445.0000	100.408
2444.0000	100.462
2443.0000	100.462
2442.0000	100.531
2441.0000	100.445
2440.0000	100.397
2439.0000	100.486
2438.0000	100.438
2437.0000	100.411
2436.0000	100.382
2435.0000	100.365
2434.0000	100.419
2433.0000	100.376
2432.0000	100.315
2431.0000	100.28
2430.0000	100.286
2429.0000	100.339
2428.0000	100.315
2427.0000	100.373
2426.0000	100.381
2425.0000	100.35
2424.0000	100.368
2423.0000	100.327
2422.0000	100.287
2421.0000	100.28
2420.0000	100.316
2419.0000	100.356
2418.0000	100.336
2417.0000	100.296
2416.0000	100.336
2415.0000	100.357
2414.0000	100.263
2413.0000	100.281
2412.0000	100.287
2411.0000	100.346
2410.0000	100.344
2409.0000	100.391
2408.0000	100.353
2407.0000	100.324
2406.0000	100.307
2405.0000	100.244
2404.0000	100.265
2403.0000	100.315
2402.0000	100.304
2401.0000	100.442
2400.0000	100.388
2399.0000	100.443
2398.0000	100.46
2397.0000	100.366
2396.0000	100.393
2395.0000	100.336
2394.0000	100.339
2393.0000	100.365
2392.0000	100.33
2391.0000	100.359
2390.0000	100.24
2389.0000	100.329
2388.0000	100.408
2387.0000	100.388
2386.0000	100.459
2385.0000	100.482
2384.0000	100.532
2383.0000	100.453
2382.0000	100.425
2381.0000	100.462
2380.0000	100.444
2379.0000	100.377
2378.0000	100.304
2377.0000	100.408
2376.0000	100.411
2375.0000	100.31
2374.0000	100.325
2373.0000	100.302
2372.0000	100.355
2371.0000	100.347
2370.0000	100.293
2369.0000	100.309
2368.0000	100.292
2367.0000	100.3
2366.0000	100.34
2365.0000	100.266
2364.0000	100.245
2363.0000	100.231
2362.0000	100.261
2361.0000	100.277
2360.0000	100.313
2359.0000	100.314
2358.0000	100.354
2357.0000	100.287
2356.0000	100.335
2355.0000	100.242
2354.0000	100.3
2353.0000	100.288
2352.0000	100.341
2351.0000	100.371
2350.0000	100.434
2349.0000	100.389
2348.0000	100.397
2347.0000	100.397
2346.0000	100.357
2345.0000	100.337
2344.0000	100.322
2343.0000	100.403
2342.0000	100.438
2341.0000	100.422
2340.0000	100.406
2339.0000	100.417
2338.0000	100.404
2337.0000	100.389
2336.0000	100.383
2335.0000	100.4
2334.0000	100.389
2333.0000	100.416
2332.0000	100.44
2331.0000	100.492
2330.0000	100.473
2329.0000	100.375
2328.0000	100.363
2327.0000	100.363
2326.0000	100.317
2325.0000	100.269
2324.0000	100.256
2323.0000	100.336
2322.0000	100.4
2321.0000	100.381
2320.0000	100.371
2319.0000	100.353
2318.0000	100.32
2317.0000	100.282
2316.0000	100.231
2315.0000	100.233
2314.0000	100.257
2313.0000	100.285
2312.0000	100.338
2311.0000	100.293
2310.0000	100.321
2309.0000	100.318
2308.0000	100.247
2307.0000	100.27
2306.0000	100.25
2305.0000	100.237
2304.0000	100.246
2303.0000	100.298
2302.0000	100.33
2301.0000	100.39
2300.0000	100.419
2299.0000	100.405
2298.0000	100.397
2297.0000	100.442
2296.0000	100.482
2295.0000	100.444
2294.0000	100.484
2293.0000	100.46
2292.0000	100.454
2291.0000	100.456
2290.0000	100.313
2289.0000	100.355
2288.0000	100.284
2287.0000	100.309
2286.0000	100.309
2285.0000	100.309
2284.0000	100.257
2283.0000	100.269
2282.0000	100.21
2281.0000	100.282
2280.0000	100.265
2279.0000	100.219
2278.0000	100.204
2277.0000	100.25
2276.0000	100.287
2275.0000	100.332
2274.0000	100.36
2273.0000	100.402
2272.0000	100.463
2271.0000	100.48
2270.0000	100.433
2269.0000	100.44
2268.0000	100.42
2267.0000	100.377
2266.0000	100.393
2265.0000	100.33
2264.0000	100.333
2263.0000	100.338
2262.0000	100.333
2261.0000	100.284
2260.0000	100.298
2259.0000	100.338
2258.0000	100.341
2257.0000	100.353
2256.0000	100.366
2255.0000	100.392
2254.0000	100.406
2253.0000	100.414
2252.0000	100.334
2251.0000	100.336
2250.0000	100.423
2249.0000	100.387
2248.0000	100.346
2247.0000	100.398
2246.0000	100.406
2245.0000	100.437
2244.0000	100.363
2243.0000	100.31
2242.0000	100.287
2241.0000	100.266
2240.0000	100.282
2239.0000	100.374
2238.0000	100.363
2237.0000	100.455
2236.0000	100.44
2235.0000	100.44
2234.0000	100.462
2233.0000	100.48
2232.0000	100.422
2231.0000	100.407
2230.0000	100.406
2229.0000	100.433
2228.0000	100.378
2227.0000	100.325
2226.0000	100.338
2225.0000	100.423
2224.0000	100.361
2223.0000	100.342
2222.0000	100.415
2221.0000	100.415
2220.0000	100.363
2219.0000	100.388
2218.0000	100.344
2217.0000	100.329
2216.0000	100.326
2215.0000	100.367
2214.0000	100.323
2213.0000	100.358
2212.0000	100.309
2211.0000	100.319
2210.0000	100.356
2209.0000	100.401
2208.0000	100.363
2207.0000	100.353
2206.0000	100.256
2205.0000	100.272
2204.0000	100.275
2203.0000	100.277
2202.0000	100.211
2201.0000	100.235
2200.0000	100.287
2199.0000	100.322
2198.0000	100.407
2197.0000	100.36
2196.0000	100.355
2195.0000	100.367
2194.0000	100.399
2193.0000	100.362
2192.0000	100.309
2191.0000	100.296
2190.0000	100.212
2189.0000	100.262
2188.0000	100.246
2187.0000	100.216
2186.0000	100.215
2185.0000	100.288
2184.0000	100.351
2183.0000	100.277
2182.0000	100.298
2181.0000	100.283
2180.0000	100.3
2179.0000	100.317
2178.0000	100.305
2177.0000	100.306
2176.0000	100.284
2175.0000	100.315
2174.0000	100.223
2173.0000	100.284
2172.0000	100.215
2171.0000	100.299
2170.0000	100.324
2169.0000	100.411
2168.0000	100.391
2167.0000	100.331
2166.0000	100.346
2165.0000	100.334
2164.0000	100.316
2163.0000	100.278
2162.0000	100.283
2161.0000	100.343
2160.0000	100.248
2159.0000	100.236
2158.0000	100.248
2157.0000	100.269
2156.0000	100.275
2155.0000	100.281
2154.0000	100.3
2153.0000	100.319
2152.0000	100.319
2151.0000	100.3
2150.0000	100.339
2149.0000	100.331
2148.0000	100.346
2147.0000	100.279
2146.0000	100.306
2145.0000	100.315
2144.0000	100.251
2143.0000	100.223
2142.0000	100.271
2141.0000	100.287
2140.0000	100.27
2139.0000	100.289
2138.0000	100.26
2137.0000	100.294
2136.0000	100.248
2135.0000	100.338
2134.0000	100.328
2133.0000	100.326
2132.0000	100.35
2131.0000	100.421
2130.0000	100.507
2129.0000	100.441
2128.0000	100.411
2127.0000	100.451
2126.0000	100.417
2125.0000	100.396
2124.0000	100.4
2123.0000	100.438
2122.0000	100.356
2121.0000	100.367
2120.0000	100.329
2119.0000	100.326
2118.0000	100.269
2117.0000	100.23
2116.0000	100.277
2115.0000	100.294
2114.0000	100.283
2113.0000	100.223
2112.0000	100.322
2111.0000	100.262
2110.0000	100.247
2109.0000	100.232
2108.0000	100.281
2107.0000	100.385
2106.0000	100.354
2105.0000	100.329
2104.0000	100.338
2103.0000	100.522
2102.0000	100.405
2101.0000	100.36
2100.0000	100.367
2099.0000	100.431
2098.0000	100.415
2097.0000	100.361
2096.0000	100.336
2095.0000	100.349
2094.0000	100.365
2093.0000	100.336
2092.0000	100.36
2091.0000	100.348
2090.0000	100.276
2089.0000	100.288
2088.0000	100.28
2087.0000	100.331
2086.0000	100.348
2085.0000	100.29
2084.0000	100.304
2083.0000	100.288
2082.0000	100.342
2081.0000	100.294
2080.0000	100.302
2079.0000	100.296
2078.0000	100.272
2077.0000	100.277
2076.0000	100.259
2075.0000	100.265
2074.0000	100.251
2073.0000	100.297
2072.0000	100.312
2071.0000	100.304
2070.0000	100.254
2069.0000	100.241
2068.0000	100.215
2067.0000	100.193
2066.0000	100.163
2065.0000	100.212
2064.0000	100.334
2063.0000	100.339
2062.0000	100.339
2061.0000	100.324
2060.0000	100.282
2059.0000	100.265
2058.0000	100.156
2057.0000	100.186
2056.0000	100.282
2055.0000	100.264
2054.0000	100.279
2053.0000	100.306
2052.0000	100.335
2051.0000	100.293
2050.0000	100.329
2049.0000	100.323
2048.0000	100.357
2047.0000	100.317
2046.0000	100.311
2045.0000	100.323
2044.0000	100.316
2043.0000	100.292
2042.0000	100.333
2041.0000	100.329
2040.0000	100.399
2039.0000	100.417
2038.0000	100.37
2037.0000	100.386
2036.0000	100.383
2035.0000	100.395
2034.0000	100.381
2033.0000	100.332
2032.0000	100.381
2031.0000	100.377
2030.0000	100.36
2029.0000	100.386
2028.0000	100.407
2027.0000	100.336
2026.0000	100.365
2025.0000	100.33
2024.0000	100.338
2023.0000	100.309
2022.0000	100.323
2021.0000	100.365
2020.0000	100.333
2019.0000	100.308
2018.0000	100.314
2017.0000	100.377
2016.0000	100.332
2015.0000	100.406
2014.0000	100.391
2013.0000	100.415
2012.0000	100.413
2011.0000	100.361
2010.0000	100.37
2009.0000	100.347
2008.0000	100.338
2007.0000	100.332
2006.0000	100.322
2005.0000	100.362
2004.0000	100.365
2003.0000	100.328
2002.0000	100.29
2001.0000	100.252
2000.0000	100.252
1999.0000	100.256
1998.0000	100.287
1997.0000	100.228
1996.0000	100.242
1995.0000	100.28
1994.0000	100.315
1993.0000	100.307
1992.0000	100.301
1991.0000	100.34
1990.0000	100.32
1989.0000	100.336
1988.0000	100.325
1987.0000	100.329
1986.0000	100.3
1985.0000	100.351
1984.0000	100.374
1983.0000	100.366
1982.0000	100.39
1981.0000	100.397
1980.0000	100.407
1979.0000	100.38
1978.0000	100.351
1977.0000	100.383
1976.0000	100.371
1975.0000	100.388
1974.0000	100.341
1973.0000	100.344
1972.0000	100.296
1971.0000	100.23
1970.0000	100.179
1969.0000	100.234
1968.0000	100.229
1967.0000	100.255
1966.0000	100.291
1965.0000	100.334
1964.0000	100.373
1963.0000	100.32
1962.0000	100.319
1961.0000	100.294
1960.0000	100.283
1959.0000	100.267
1958.0000	100.324
1957.0000	100.349
1956.0000	100.346
1955.0000	100.341
1954.0000	100.388
1953.0000	100.397
1952.0000	100.355
1951.0000	100.32
1950.0000	100.269
1949.0000	100.23
1948.0000	100.211
1947.0000	100.249
1946.0000	100.25
1945.0000	100.324
1944.0000	100.354
1943.0000	100.379
1942.0000	100.423
1941.0000	100.383
1940.0000	100.436
1939.0000	100.349
1938.0000	100.365
1937.0000	100.315
1936.0000	100.343
1935.0000	100.377
1934.0000	100.356
1933.0000	100.388
1932.0000	100.342
1931.0000	100.359
1930.0000	100.343
1929.0000	100.405
1928.0000	100.356
1927.0000	100.33
1926.0000	100.387
1925.0000	100.386
1924.0000	100.461
1923.0000	100.413
1922.0000	100.403
1921.0000	100.423
1920.0000	100.423
1919.0000	100.404
1918.0000	100.339
1917.0000	100.4
1916.0000	100.392
1915.0000	100.346
1914.0000	100.372
1913.0000	100.242
1912.0000	100.248
1911.0000	100.215
1910.0000	100.191
1909.0000	100.207
1908.0000	100.298
1907.0000	100.323
1906.0000	100.352
1905.0000	100.367
1904.0000	100.473
1903.0000	100.469
1902.0000	100.368
1901.0000	100.405
1900.0000	100.34
1899.0000	100.322
1898.0000	100.247
1897.0000	100.27
1896.0000	100.241
1895.0000	100.195
1894.0000	100.181
1893.0000	100.175
1892.0000	100.262
1891.0000	100.305
1890.0000	100.35
1889.0000	100.324
1888.0000	100.348
1887.0000	100.332
1886.0000	100.341
1885.0000	100.273
1884.0000	100.279
1883.0000	100.261
1882.0000	100.265
1881.0000	100.256
1880.0000	100.286
1879.0000	100.319
1878.0000	100.336
1877.0000	100.308
1876.0000	100.344
1875.0000	100.343
1874.0000	100.304
1873.0000	100.222
1872.0000	100.206
1871.0000	100.255
1870.0000	100.222
1869.0000	100.271
1868.0000	100.271
1867.0000	100.274
1866.0000	100.275
1865.0000	100.235
1864.0000	100.18
1863.0000	100.169
1862.0000	100.172
1861.0000	100.207
1860.0000	100.268
1859.0000	100.22
1858.0000	100.252
1857.0000	100.282
1856.0000	100.31
1855.0000	100.317
1854.0000	100.295
1853.0000	100.299
1852.0000	100.302
1851.0000	100.342
1850.0000	100.271
1849.0000	100.255
1848.0000	100.27
1847.0000	100.287
1846.0000	100.323
1845.0000	100.273
1844.0000	100.267
1843.0000	100.257
1842.0000	100.283
1841.0000	100.291
1840.0000	100.271
1839.0000	100.232
1838.0000	100.288
1837.0000	100.255
1836.0000	100.232
1835.0000	100.182
1834.0000	100.247
1833.0000	100.227
1832.0000	100.3
1831.0000	100.304
1830.0000	100.327
1829.0000	100.402
1828.0000	100.376
1827.0000	100.35
1826.0000	100.309
1825.0000	100.299
1824.0000	100.287
1823.0000	100.276
1822.0000	100.22
1821.0000	100.216
1820.0000	100.281
1819.0000	100.262
1818.0000	100.286
1817.0000	100.288
1816.0000	100.314
1815.0000	100.301
1814.0000	100.296
1813.0000	100.316
1812.0000	100.336
1811.0000	100.299
1810.0000	100.274
1809.0000	100.285
1808.0000	100.275
1807.0000	100.305
1806.0000	100.286
1805.0000	100.318
1804.0000	100.304
1803.0000	100.345
1802.0000	100.322
1801.0000	100.284
1800.0000	100.311
1799.0000	100.241
1798.0000	100.27
1797.0000	100.247
1796.0000	100.282
1795.0000	100.293
1794.0000	100.309
1793.0000	100.334
1792.0000	100.33
1791.0000	100.301
1790.0000	100.274
1789.0000	100.217
1788.0000	100.213
1787.0000	100.256
1786.0000	100.285
1785.0000	100.324
1784.0000	100.32
1783.0000	100.296
1782.0000	100.324
1781.0000	100.306
1780.0000	100.265
1779.0000	100.254
1778.0000	100.313
1777.0000	100.35
1776.0000	100.386
1775.0000	100.374
1774.0000	100.364
1773.0000	100.364
1772.0000	100.364
1771.0000	100.349
1770.0000	100.314
1769.0000	100.308
1768.0000	100.298
1767.0000	100.289
1766.0000	100.274
1765.0000	100.264
1764.0000	100.282
1763.0000	100.289
1762.0000	100.323
1761.0000	100.299
1760.0000	100.337
1759.0000	100.323
1758.0000	100.331
1757.0000	100.321
1756.0000	100.305
1755.0000	100.337
1754.0000	100.315
1753.0000	100.306
1752.0000	100.337
1751.0000	100.332
1750.0000	100.329
1749.0000	100.353
1748.0000	100.346
1747.0000	100.371
1746.0000	100.361
1745.0000	100.337
1744.0000	100.34
1743.0000	100.348
1742.0000	100.33
1741.0000	100.33
1740.0000	100.303
1739.0000	100.309
1738.0000	100.306
1737.0000	100.301
1736.0000	100.287
1735.0000	100.287
1734.0000	100.296
1733.0000	100.306
1732.0000	100.276
1731.0000	100.268
1730.0000	100.299
1729.0000	100.305
1728.0000	100.291
1727.0000	100.31
1726.0000	100.303
1725.0000	100.295
1724.0000	100.273
1723.0000	100.253
1722.0000	100.293
1721.0000	100.28
1720.0000	100.28
1719.0000	100.285
1718.0000	100.298
1717.0000	100.288
1716.0000	100.297
1715.0000	100.293
1714.0000	100.314
1713.0000	100.317
1712.0000	100.296
1711.0000	100.322
1710.0000	100.303
1709.0000	100.313
1708.0000	100.287
1707.0000	100.301
1706.0000	100.315
1705.0000	100.325
1704.0000	100.365
1703.0000	100.321
1702.0000	100.348
1701.0000	100.344
1700.0000	100.341
1699.0000	100.309
1698.0000	100.31
1697.0000	100.281
1696.0000	100.243
1695.0000	100.255
1694.0000	100.234
1693.0000	100.231
1692.0000	100.236
1691.0000	100.224
1690.0000	100.278
1689.0000	100.266
1688.0000	100.287
1687.0000	100.288
1686.0000	100.281
1685.0000	100.27
1684.0000	100.233
1683.0000	100.244
1682.0000	100.262
1681.0000	100.274
1680.0000	100.265
1679.0000	100.276
1678.0000	100.282
1677.0000	100.281
1676.0000	100.283
1675.0000	100.268
1674.0000	100.242
1673.0000	100.241
1672.0000	100.225
1671.0000	100.261
1670.0000	100.274
1669.0000	100.258
1668.0000	100.292
1667.0000	100.283
1666.0000	100.301
1665.0000	100.285
1664.0000	100.318
1663.0000	100.31
1662.0000	100.288
1661.0000	100.27
1660.0000	100.298
1659.0000	100.273
1658.0000	100.251
1657.0000	100.28
1656.0000	100.285
1655.0000	100.301
1654.0000	100.295
1653.0000	100.279
1652.0000	100.31
1651.0000	100.288
1650.0000	100.246
1649.0000	100.227
1648.0000	100.224
1647.0000	100.249
1646.0000	100.244
1645.0000	100.261
1644.0000	100.264
1643.0000	100.297
1642.0000	100.27
1641.0000	100.268
1640.0000	100.3
1639.0000	100.275
1638.0000	100.296
1637.0000	100.269
1636.0000	100.292
1635.0000	100.28
1634.0000	100.277
1633.0000	100.256
1632.0000	100.292
1631.0000	100.291
1630.0000	100.309
1629.0000	100.293
1628.0000	100.275
1627.0000	100.291
1626.0000	100.264
1625.0000	100.258
1624.0000	100.255
1623.0000	100.248
1622.0000	100.277
1621.0000	100.255
1620.0000	100.301
1619.0000	100.267
1618.0000	100.3
1617.0000	100.287
1616.0000	100.305
1615.0000	100.267
1614.0000	100.254
1613.0000	100.259
1612.0000	100.247
1611.0000	100.262
1610.0000	100.215
1609.0000	100.255
1608.0000	100.27
1607.0000	100.28
1606.0000	100.299
1605.0000	100.279
1604.0000	100.295
1603.0000	100.273
1602.0000	100.253
1601.0000	100.247
1600.0000	100.245
1599.0000	100.239
1598.0000	100.273
1597.0000	100.295
1596.0000	100.307
1595.0000	100.36
1594.0000	100.3
1593.0000	100.343
1592.0000	100.324
1591.0000	100.333
1590.0000	100.288
1589.0000	100.295
1588.0000	100.26
1587.0000	100.267
1586.0000	100.288
1585.0000	100.259
1584.0000	100.247
1583.0000	100.254
1582.0000	100.274
1581.0000	100.26
1580.0000	100.224
1579.0000	100.261
1578.0000	100.237
1577.0000	100.276
1576.0000	100.241
1575.0000	100.263
1574.0000	100.275
1573.0000	100.308
1572.0000	100.308
1571.0000	100.296
1570.0000	100.332
1569.0000	100.34
1568.0000	100.327
1567.0000	100.307
1566.0000	100.331
1565.0000	100.328
1564.0000	100.343
1563.0000	100.336
1562.0000	100.328
1561.0000	100.343
1560.0000	100.333
1559.0000	100.325
1558.0000	100.336
1557.0000	100.303
1556.0000	100.298
1555.0000	100.303
1554.0000	100.299
1553.0000	100.295
1552.0000	100.299
1551.0000	100.277
1550.0000	100.279
1549.0000	100.299
1548.0000	100.283
1547.0000	100.292
1546.0000	100.275
1545.0000	100.312
1544.0000	100.315
1543.0000	100.316
1542.0000	100.247
1541.0000	100.263
1540.0000	100.306
1539.0000	100.296
1538.0000	100.292
1537.0000	100.308
1536.0000	100.344
1535.0000	100.379
1534.0000	100.319
1533.0000	100.314
1532.0000	100.308
1531.0000	100.296
1530.0000	100.274
1529.0000	100.24
1528.0000	100.221
1527.0000	100.231
1526.0000	100.268
1525.0000	100.24
1524.0000	100.253
1523.0000	100.238
1522.0000	100.234
1521.0000	100.246
1520.0000	100.244
1519.0000	100.24
1518.0000	100.239
1517.0000	100.272
1516.0000	100.289
1515.0000	100.28
1514.0000	100.28
1513.0000	100.272
1512.0000	100.276
1511.0000	100.297
1510.0000	100.285
1509.0000	100.298
1508.0000	100.309
1507.0000	100.336
1506.0000	100.329
1505.0000	100.34
1504.0000	100.338
1503.0000	100.358
1502.0000	100.325
1501.0000	100.33
1500.0000	100.343
1499.0000	100.309
1498.0000	100.313
1497.0000	100.276
1496.0000	100.277
1495.0000	100.31
1494.0000	100.293
1493.0000	100.319
1492.0000	100.327
1491.0000	100.332
1490.0000	100.316
1489.0000	100.307
1488.0000	100.301
1487.0000	100.299
1486.0000	100.272
1485.0000	100.313
1484.0000	100.288
1483.0000	100.277
1482.0000	100.284
1481.0000	100.26
1480.0000	100.278
1479.0000	100.263
1478.0000	100.244
1477.0000	100.233
1476.0000	100.21
1475.0000	100.234
1474.0000	100.221
1473.0000	100.251
1472.0000	100.238
1471.0000	100.235
1470.0000	100.247
1469.0000	100.284
1468.0000	100.272
1467.0000	100.245
1466.0000	100.276
1465.0000	100.28
1464.0000	100.268
1463.0000	100.282
1462.0000	100.291
1461.0000	100.295
1460.0000	100.284
1459.0000	100.238
1458.0000	100.247
1457.0000	100.234
1456.0000	100.258
1455.0000	100.255
1454.0000	100.266
1453.0000	100.29
1452.0000	100.304
1451.0000	100.293
1450.0000	100.256
1449.0000	100.275
1448.0000	100.271
1447.0000	100.232
1446.0000	100.224
1445.0000	100.219
1444.0000	100.25
1443.0000	100.236
1442.0000	100.251
1441.0000	100.275
1440.0000	100.279
1439.0000	100.297
1438.0000	100.304
1437.0000	100.281
1436.0000	100.301
1435.0000	100.288
1434.0000	100.312
1433.0000	100.317
1432.0000	100.322
1431.0000	100.345
1430.0000	100.321
1429.0000	100.328
1428.0000	100.348
1427.0000	100.324
1426.0000	100.308
1425.0000	100.297
1424.0000	100.28
1423.0000	100.263
1422.0000	100.283
1421.0000	100.28
1420.0000	100.274
1419.0000	100.276
1418.0000	100.273
1417.0000	100.245
1416.0000	100.236
1415.0000	100.231
1414.0000	100.255
1413.0000	100.27
1412.0000	100.269
1411.0000	100.26
1410.0000	100.246
1409.0000	100.271
1408.0000	100.225
1407.0000	100.227
1406.0000	100.224
1405.0000	100.242
1404.0000	100.236
1403.0000	100.248
1402.0000	100.28
1401.0000	100.308
1400.0000	100.284
1399.0000	100.302
