TITLE	n-GaN
DATA TYPE	ULTRAVIOLET SPECTRUM
ORIGIN	JASCO
OWNER	
DATE	19/11/20
TIME	15:21:01
SPECTROMETER/DATA SYSTEM	
RESOLUTION	
DELTAX	-1
XUNITS	NANOMETERS
YUNITS	TRANSMITTANCE
FIRSTX	 2500.0000
LASTX	  300.0000
NPOINTS	    2201
FIRSTY	   100.74783
MAXY	   101.09960
MINY	    99.97169
XYDATA
2500.0000	100.748
2499.0000	100.657
2498.0000	100.611
2497.0000	100.548
2496.0000	100.526
2495.0000	100.562
2494.0000	100.504
2493.0000	100.469
2492.0000	100.51
2491.0000	100.523
2490.0000	100.568
2489.0000	100.485
2488.0000	100.531
2487.0000	100.536
2486.0000	100.616
2485.0000	100.698
2484.0000	100.624
2483.0000	100.784
2482.0000	100.82
2481.0000	100.692
2480.0000	100.64
2479.0000	100.589
2478.0000	100.54
2477.0000	100.521
2476.0000	100.417
2475.0000	100.494
2474.0000	100.522
2473.0000	100.447
2472.0000	100.526
2471.0000	100.485
2470.0000	100.493
2469.0000	100.459
2468.0000	100.398
2467.0000	100.399
2466.0000	100.389
2465.0000	100.479
2464.0000	100.45
2463.0000	100.481
2462.0000	100.563
2461.0000	100.693
2460.0000	100.617
2459.0000	100.57
2458.0000	100.591
2457.0000	100.593
2456.0000	100.484
2455.0000	100.396
2454.0000	100.421
2453.0000	100.45
2452.0000	100.484
2451.0000	100.452
2450.0000	100.458
2449.0000	100.543
2448.0000	100.528
2447.0000	100.605
2446.0000	100.615
2445.0000	100.626
2444.0000	100.737
2443.0000	100.732
2442.0000	100.743
2441.0000	100.701
2440.0000	100.627
2439.0000	100.621
2438.0000	100.57
2437.0000	100.558
2436.0000	100.523
2435.0000	100.529
2434.0000	100.473
2433.0000	100.495
2432.0000	100.529
2431.0000	100.485
2430.0000	100.431
2429.0000	100.442
2428.0000	100.508
2427.0000	100.506
2426.0000	100.482
2425.0000	100.463
2424.0000	100.487
2423.0000	100.471
2422.0000	100.41
2421.0000	100.412
2420.0000	100.446
2419.0000	100.408
2418.0000	100.48
2417.0000	100.482
2416.0000	100.521
2415.0000	100.537
2414.0000	100.52
2413.0000	100.522
2412.0000	100.522
2411.0000	100.546
2410.0000	100.475
2409.0000	100.493
2408.0000	100.467
2407.0000	100.478
2406.0000	100.429
2405.0000	100.424
2404.0000	100.439
2403.0000	100.458
2402.0000	100.467
2401.0000	100.487
2400.0000	100.505
2399.0000	100.563
2398.0000	100.568
2397.0000	100.554
2396.0000	100.545
2395.0000	100.526
2394.0000	100.553
2393.0000	100.53
2392.0000	100.528
2391.0000	100.533
2390.0000	100.464
2389.0000	100.517
2388.0000	100.573
2387.0000	100.574
2386.0000	100.614
2385.0000	100.619
2384.0000	100.673
2383.0000	100.663
2382.0000	100.683
2381.0000	100.73
2380.0000	100.642
2379.0000	100.622
2378.0000	100.515
2377.0000	100.63
2376.0000	100.642
2375.0000	100.563
2374.0000	100.565
2373.0000	100.551
2372.0000	100.622
2371.0000	100.64
2370.0000	100.548
2369.0000	100.541
2368.0000	100.476
2367.0000	100.511
2366.0000	100.521
2365.0000	100.465
2364.0000	100.451
2363.0000	100.488
2362.0000	100.531
2361.0000	100.533
2360.0000	100.588
2359.0000	100.598
2358.0000	100.556
2357.0000	100.507
2356.0000	100.547
2355.0000	100.474
2354.0000	100.468
2353.0000	100.437
2352.0000	100.513
2351.0000	100.514
2350.0000	100.574
2349.0000	100.563
2348.0000	100.537
2347.0000	100.534
2346.0000	100.521
2345.0000	100.501
2344.0000	100.553
2343.0000	100.53
2342.0000	100.58
2341.0000	100.573
2340.0000	100.581
2339.0000	100.666
2338.0000	100.602
2337.0000	100.616
2336.0000	100.595
2335.0000	100.669
2334.0000	100.594
2333.0000	100.58
2332.0000	100.541
2331.0000	100.6
2330.0000	100.594
2329.0000	100.545
2328.0000	100.57
2327.0000	100.547
2326.0000	100.548
2325.0000	100.561
2324.0000	100.569
2323.0000	100.674
2322.0000	100.665
2321.0000	100.622
2320.0000	100.658
2319.0000	100.684
2318.0000	100.603
2317.0000	100.529
2316.0000	100.51
2315.0000	100.54
2314.0000	100.547
2313.0000	100.498
2312.0000	100.554
2311.0000	100.598
2310.0000	100.548
2309.0000	100.529
2308.0000	100.446
2307.0000	100.477
2306.0000	100.48
2305.0000	100.484
2304.0000	100.537
2303.0000	100.58
2302.0000	100.612
2301.0000	100.597
2300.0000	100.553
2299.0000	100.475
2298.0000	100.434
2297.0000	100.425
2296.0000	100.444
2295.0000	100.471
2294.0000	100.55
2293.0000	100.565
2292.0000	100.645
2291.0000	100.672
2290.0000	100.59
2289.0000	100.547
2288.0000	100.5
2287.0000	100.503
2286.0000	100.536
2285.0000	100.483
2284.0000	100.449
2283.0000	100.508
2282.0000	100.532
2281.0000	100.589
2280.0000	100.552
2279.0000	100.543
2278.0000	100.503
2277.0000	100.478
2276.0000	100.45
2275.0000	100.475
2274.0000	100.444
2273.0000	100.499
2272.0000	100.467
2271.0000	100.583
2270.0000	100.541
2269.0000	100.61
2268.0000	100.535
2267.0000	100.483
2266.0000	100.489
2265.0000	100.455
2264.0000	100.374
2263.0000	100.394
2262.0000	100.396
2261.0000	100.361
2260.0000	100.362
2259.0000	100.391
2258.0000	100.413
2257.0000	100.406
2256.0000	100.409
2255.0000	100.489
2254.0000	100.472
2253.0000	100.532
2252.0000	100.556
2251.0000	100.499
2250.0000	100.531
2249.0000	100.473
2248.0000	100.439
2247.0000	100.486
2246.0000	100.424
2245.0000	100.451
2244.0000	100.499
2243.0000	100.445
2242.0000	100.471
2241.0000	100.447
2240.0000	100.478
2239.0000	100.533
2238.0000	100.511
2237.0000	100.528
2236.0000	100.512
2235.0000	100.509
2234.0000	100.611
2233.0000	100.576
2232.0000	100.542
2231.0000	100.555
2230.0000	100.556
2229.0000	100.54
2228.0000	100.515
2227.0000	100.457
2226.0000	100.51
2225.0000	100.531
2224.0000	100.52
2223.0000	100.533
2222.0000	100.554
2221.0000	100.566
2220.0000	100.507
2219.0000	100.558
2218.0000	100.471
2217.0000	100.459
2216.0000	100.482
2215.0000	100.462
2214.0000	100.409
2213.0000	100.453
2212.0000	100.462
2211.0000	100.447
2210.0000	100.476
2209.0000	100.535
2208.0000	100.52
2207.0000	100.518
2206.0000	100.423
2205.0000	100.457
2204.0000	100.501
2203.0000	100.448
2202.0000	100.404
2201.0000	100.415
2200.0000	100.45
2199.0000	100.471
2198.0000	100.534
2197.0000	100.555
2196.0000	100.567
2195.0000	100.599
2194.0000	100.616
2193.0000	100.619
2192.0000	100.568
2191.0000	100.493
2190.0000	100.468
2189.0000	100.427
2188.0000	100.421
2187.0000	100.42
2186.0000	100.364
2185.0000	100.411
2184.0000	100.455
2183.0000	100.45
2182.0000	100.48
2181.0000	100.405
2180.0000	100.412
2179.0000	100.424
2178.0000	100.456
2177.0000	100.416
2176.0000	100.409
2175.0000	100.46
2174.0000	100.438
2173.0000	100.507
2172.0000	100.464
2171.0000	100.523
2170.0000	100.506
2169.0000	100.523
2168.0000	100.545
2167.0000	100.456
2166.0000	100.47
2165.0000	100.451
2164.0000	100.467
2163.0000	100.464
2162.0000	100.44
2161.0000	100.407
2160.0000	100.371
2159.0000	100.341
2158.0000	100.357
2157.0000	100.386
2156.0000	100.323
2155.0000	100.409
2154.0000	100.413
2153.0000	100.452
2152.0000	100.491
2151.0000	100.443
2150.0000	100.492
2149.0000	100.464
2148.0000	100.45
2147.0000	100.438
2146.0000	100.442
2145.0000	100.424
2144.0000	100.331
2143.0000	100.371
2142.0000	100.404
2141.0000	100.382
2140.0000	100.316
2139.0000	100.382
2138.0000	100.434
2137.0000	100.436
2136.0000	100.377
2135.0000	100.447
2134.0000	100.449
2133.0000	100.491
2132.0000	100.427
2131.0000	100.443
2130.0000	100.571
2129.0000	100.579
2128.0000	100.573
2127.0000	100.58
2126.0000	100.548
2125.0000	100.612
2124.0000	100.56
2123.0000	100.593
2122.0000	100.506
2121.0000	100.544
2120.0000	100.497
2119.0000	100.496
2118.0000	100.479
2117.0000	100.408
2116.0000	100.404
2115.0000	100.425
2114.0000	100.438
2113.0000	100.367
2112.0000	100.381
2111.0000	100.379
2110.0000	100.453
2109.0000	100.428
2108.0000	100.468
2107.0000	100.425
2106.0000	100.47
2105.0000	100.441
2104.0000	100.434
2103.0000	100.517
2102.0000	100.471
2101.0000	100.483
2100.0000	100.495
2099.0000	100.558
2098.0000	100.528
2097.0000	100.552
2096.0000	100.584
2095.0000	100.531
2094.0000	100.594
2093.0000	100.586
2092.0000	100.597
2091.0000	100.496
2090.0000	100.44
2089.0000	100.402
2088.0000	100.411
2087.0000	100.427
2086.0000	100.433
2085.0000	100.389
2084.0000	100.425
2083.0000	100.471
2082.0000	100.512
2081.0000	100.45
2080.0000	100.47
2079.0000	100.499
2078.0000	100.454
2077.0000	100.432
2076.0000	100.435
2075.0000	100.418
2074.0000	100.434
2073.0000	100.489
2072.0000	100.537
2071.0000	100.531
2070.0000	100.46
2069.0000	100.468
2068.0000	100.517
2067.0000	100.455
2066.0000	100.477
2065.0000	100.456
2064.0000	100.529
2063.0000	100.515
2062.0000	100.514
2061.0000	100.486
2060.0000	100.483
2059.0000	100.483
2058.0000	100.442
2057.0000	100.437
2056.0000	100.487
2055.0000	100.465
2054.0000	100.466
2053.0000	100.484
2052.0000	100.524
2051.0000	100.507
2050.0000	100.496
2049.0000	100.409
2048.0000	100.502
2047.0000	100.518
2046.0000	100.431
2045.0000	100.484
2044.0000	100.548
2043.0000	100.531
2042.0000	100.538
2041.0000	100.532
2040.0000	100.526
2039.0000	100.542
2038.0000	100.548
2037.0000	100.519
2036.0000	100.488
2035.0000	100.458
2034.0000	100.448
2033.0000	100.447
2032.0000	100.436
2031.0000	100.443
2030.0000	100.48
2029.0000	100.558
2028.0000	100.495
2027.0000	100.452
2026.0000	100.516
2025.0000	100.494
2024.0000	100.497
2023.0000	100.399
2022.0000	100.431
2021.0000	100.449
2020.0000	100.425
2019.0000	100.436
2018.0000	100.41
2017.0000	100.495
2016.0000	100.458
2015.0000	100.551
2014.0000	100.542
2013.0000	100.534
2012.0000	100.555
2011.0000	100.462
2010.0000	100.492
2009.0000	100.482
2008.0000	100.461
2007.0000	100.444
2006.0000	100.427
2005.0000	100.431
2004.0000	100.434
2003.0000	100.418
2002.0000	100.397
2001.0000	100.401
2000.0000	100.468
1999.0000	100.484
1998.0000	100.467
1997.0000	100.417
1996.0000	100.436
1995.0000	100.518
1994.0000	100.507
1993.0000	100.536
1992.0000	100.518
1991.0000	100.553
1990.0000	100.562
1989.0000	100.516
1988.0000	100.443
1987.0000	100.5
1986.0000	100.405
1985.0000	100.425
1984.0000	100.455
1983.0000	100.444
1982.0000	100.431
1981.0000	100.447
1980.0000	100.484
1979.0000	100.494
1978.0000	100.472
1977.0000	100.437
1976.0000	100.425
1975.0000	100.435
1974.0000	100.371
1973.0000	100.379
1972.0000	100.344
1971.0000	100.342
1970.0000	100.297
1969.0000	100.337
1968.0000	100.35
1967.0000	100.314
1966.0000	100.338
1965.0000	100.413
1964.0000	100.447
1963.0000	100.476
1962.0000	100.458
1961.0000	100.517
1960.0000	100.512
1959.0000	100.477
1958.0000	100.493
1957.0000	100.452
1956.0000	100.488
1955.0000	100.479
1954.0000	100.477
1953.0000	100.449
1952.0000	100.428
1951.0000	100.47
1950.0000	100.417
1949.0000	100.382
1948.0000	100.343
1947.0000	100.413
1946.0000	100.452
1945.0000	100.455
1944.0000	100.405
1943.0000	100.406
1942.0000	100.484
1941.0000	100.466
1940.0000	100.481
1939.0000	100.48
1938.0000	100.45
1937.0000	100.438
1936.0000	100.407
1935.0000	100.401
1934.0000	100.416
1933.0000	100.379
1932.0000	100.408
1931.0000	100.444
1930.0000	100.443
1929.0000	100.446
1928.0000	100.384
1927.0000	100.359
1926.0000	100.45
1925.0000	100.418
1924.0000	100.493
1923.0000	100.453
1922.0000	100.471
1921.0000	100.5
1920.0000	100.473
1919.0000	100.458
1918.0000	100.349
1917.0000	100.433
1916.0000	100.39
1915.0000	100.392
1914.0000	100.433
1913.0000	100.384
1912.0000	100.411
1911.0000	100.418
1910.0000	100.416
1909.0000	100.45
1908.0000	100.488
1907.0000	100.474
1906.0000	100.503
1905.0000	100.489
1904.0000	100.599
1903.0000	100.55
1902.0000	100.526
1901.0000	100.526
1900.0000	100.614
1899.0000	100.557
1898.0000	100.512
1897.0000	100.495
1896.0000	100.465
1895.0000	100.442
1894.0000	100.363
1893.0000	100.396
1892.0000	100.443
1891.0000	100.444
1890.0000	100.455
1889.0000	100.398
1888.0000	100.419
1887.0000	100.455
1886.0000	100.476
1885.0000	100.479
1884.0000	100.479
1883.0000	100.437
1882.0000	100.412
1881.0000	100.356
1880.0000	100.338
1879.0000	100.385
1878.0000	100.377
1877.0000	100.386
1876.0000	100.435
1875.0000	100.486
1874.0000	100.548
1873.0000	100.481
1872.0000	100.466
1871.0000	100.476
1870.0000	100.453
1869.0000	100.461
1868.0000	100.445
1867.0000	100.398
1866.0000	100.393
1865.0000	100.369
1864.0000	100.355
1863.0000	100.389
1862.0000	100.397
1861.0000	100.462
1860.0000	100.488
1859.0000	100.443
1858.0000	100.436
1857.0000	100.408
1856.0000	100.419
1855.0000	100.384
1854.0000	100.358
1853.0000	100.398
1852.0000	100.456
1851.0000	100.448
1850.0000	100.406
1849.0000	100.401
1848.0000	100.392
1847.0000	100.422
1846.0000	100.394
1845.0000	100.387
1844.0000	100.413
1843.0000	100.414
1842.0000	100.462
1841.0000	100.449
1840.0000	100.398
1839.0000	100.374
1838.0000	100.493
1837.0000	100.416
1836.0000	100.401
1835.0000	100.381
1834.0000	100.448
1833.0000	100.504
1832.0000	100.525
1831.0000	100.553
1830.0000	100.539
1829.0000	100.589
1828.0000	100.584
1827.0000	100.534
1826.0000	100.503
1825.0000	100.468
1824.0000	100.448
1823.0000	100.466
1822.0000	100.445
1821.0000	100.483
1820.0000	100.488
1819.0000	100.454
1818.0000	100.445
1817.0000	100.484
1816.0000	100.442
1815.0000	100.418
1814.0000	100.399
1813.0000	100.427
1812.0000	100.46
1811.0000	100.426
1810.0000	100.431
1809.0000	100.441
1808.0000	100.398
1807.0000	100.487
1806.0000	100.436
1805.0000	100.467
1804.0000	100.477
1803.0000	100.44
1802.0000	100.453
1801.0000	100.418
1800.0000	100.459
1799.0000	100.445
1798.0000	100.435
1797.0000	100.412
1796.0000	100.409
1795.0000	100.436
1794.0000	100.436
1793.0000	100.447
1792.0000	100.389
1791.0000	100.449
1790.0000	100.443
1789.0000	100.431
1788.0000	100.395
1787.0000	100.439
1786.0000	100.424
1785.0000	100.446
1784.0000	100.416
1783.0000	100.381
1782.0000	100.394
1781.0000	100.418
1780.0000	100.401
1779.0000	100.428
1778.0000	100.47
1777.0000	100.498
1776.0000	100.513
1775.0000	100.489
1774.0000	100.48
1773.0000	100.492
1772.0000	100.443
1771.0000	100.423
1770.0000	100.403
1769.0000	100.44
1768.0000	100.473
1767.0000	100.461
1766.0000	100.447
1765.0000	100.455
1764.0000	100.5
1763.0000	100.472
1762.0000	100.466
1761.0000	100.451
1760.0000	100.477
1759.0000	100.491
1758.0000	100.478
1757.0000	100.485
1756.0000	100.478
1755.0000	100.471
1754.0000	100.474
1753.0000	100.48
1752.0000	100.497
1751.0000	100.492
1750.0000	100.492
1749.0000	100.501
1748.0000	100.505
1747.0000	100.476
1746.0000	100.475
1745.0000	100.454
1744.0000	100.457
1743.0000	100.458
1742.0000	100.438
1741.0000	100.467
1740.0000	100.473
1739.0000	100.468
1738.0000	100.461
1737.0000	100.461
1736.0000	100.448
1735.0000	100.441
1734.0000	100.463
1733.0000	100.45
1732.0000	100.426
1731.0000	100.435
1730.0000	100.451
1729.0000	100.464
1728.0000	100.451
1727.0000	100.452
1726.0000	100.461
1725.0000	100.459
1724.0000	100.456
1723.0000	100.437
1722.0000	100.455
1721.0000	100.433
1720.0000	100.412
1719.0000	100.435
1718.0000	100.441
1717.0000	100.42
1716.0000	100.46
1715.0000	100.466
1714.0000	100.476
1713.0000	100.442
1712.0000	100.438
1711.0000	100.445
1710.0000	100.47
1709.0000	100.42
1708.0000	100.417
1707.0000	100.466
1706.0000	100.438
1705.0000	100.476
1704.0000	100.478
1703.0000	100.464
1702.0000	100.494
1701.0000	100.453
1700.0000	100.433
1699.0000	100.417
1698.0000	100.385
1697.0000	100.371
1696.0000	100.336
1695.0000	100.335
1694.0000	100.395
1693.0000	100.445
1692.0000	100.457
1691.0000	100.439
1690.0000	100.486
1689.0000	100.48
1688.0000	100.476
1687.0000	100.458
1686.0000	100.462
1685.0000	100.425
1684.0000	100.392
1683.0000	100.421
1682.0000	100.431
1681.0000	100.425
1680.0000	100.416
1679.0000	100.403
1678.0000	100.411
1677.0000	100.39
1676.0000	100.364
1675.0000	100.38
1674.0000	100.36
1673.0000	100.367
1672.0000	100.383
1671.0000	100.395
1670.0000	100.393
1669.0000	100.404
1668.0000	100.422
1667.0000	100.385
1666.0000	100.391
1665.0000	100.39
1664.0000	100.42
1663.0000	100.395
1662.0000	100.385
1661.0000	100.41
1660.0000	100.442
1659.0000	100.427
1658.0000	100.425
1657.0000	100.433
1656.0000	100.444
1655.0000	100.402
1654.0000	100.415
1653.0000	100.426
1652.0000	100.426
1651.0000	100.417
1650.0000	100.416
1649.0000	100.388
1648.0000	100.375
1647.0000	100.387
1646.0000	100.399
1645.0000	100.408
1644.0000	100.409
1643.0000	100.471
1642.0000	100.441
1641.0000	100.442
1640.0000	100.411
1639.0000	100.387
1638.0000	100.423
1637.0000	100.406
1636.0000	100.418
1635.0000	100.451
1634.0000	100.472
1633.0000	100.427
1632.0000	100.475
1631.0000	100.439
1630.0000	100.467
1629.0000	100.377
1628.0000	100.402
1627.0000	100.431
1626.0000	100.403
1625.0000	100.389
1624.0000	100.363
1623.0000	100.378
1622.0000	100.443
1621.0000	100.393
1620.0000	100.408
1619.0000	100.41
1618.0000	100.435
1617.0000	100.421
1616.0000	100.466
1615.0000	100.404
1614.0000	100.376
1613.0000	100.375
1612.0000	100.399
1611.0000	100.432
1610.0000	100.385
1609.0000	100.409
1608.0000	100.44
1607.0000	100.468
1606.0000	100.482
1605.0000	100.452
1604.0000	100.425
1603.0000	100.413
1602.0000	100.397
1601.0000	100.405
1600.0000	100.408
1599.0000	100.407
1598.0000	100.456
1597.0000	100.468
1596.0000	100.458
1595.0000	100.493
1594.0000	100.418
1593.0000	100.435
1592.0000	100.422
1591.0000	100.404
1590.0000	100.437
1589.0000	100.416
1588.0000	100.41
1587.0000	100.419
1586.0000	100.451
1585.0000	100.411
1584.0000	100.388
1583.0000	100.409
1582.0000	100.432
1581.0000	100.431
1580.0000	100.379
1579.0000	100.4
1578.0000	100.391
1577.0000	100.412
1576.0000	100.371
1575.0000	100.391
1574.0000	100.409
1573.0000	100.387
1572.0000	100.395
1571.0000	100.398
1570.0000	100.414
1569.0000	100.431
1568.0000	100.405
1567.0000	100.415
1566.0000	100.46
1565.0000	100.468
1564.0000	100.458
1563.0000	100.438
1562.0000	100.447
1561.0000	100.468
1560.0000	100.424
1559.0000	100.435
1558.0000	100.443
1557.0000	100.415
1556.0000	100.421
1555.0000	100.396
1554.0000	100.409
1553.0000	100.395
1552.0000	100.394
1551.0000	100.408
1550.0000	100.406
1549.0000	100.432
1548.0000	100.424
1547.0000	100.414
1546.0000	100.388
1545.0000	100.432
1544.0000	100.422
1543.0000	100.419
1542.0000	100.356
1541.0000	100.372
1540.0000	100.399
1539.0000	100.384
1538.0000	100.369
1537.0000	100.372
1536.0000	100.417
1535.0000	100.424
1534.0000	100.379
1533.0000	100.418
1532.0000	100.402
1531.0000	100.43
1530.0000	100.38
1529.0000	100.38
1528.0000	100.365
1527.0000	100.38
1526.0000	100.423
1525.0000	100.372
1524.0000	100.387
1523.0000	100.388
1522.0000	100.406
1521.0000	100.422
1520.0000	100.414
1519.0000	100.423
1518.0000	100.455
1517.0000	100.479
1516.0000	100.479
1515.0000	100.489
1514.0000	100.485
1513.0000	100.432
1512.0000	100.427
1511.0000	100.418
1510.0000	100.419
1509.0000	100.379
1508.0000	100.4
1507.0000	100.417
1506.0000	100.399
1505.0000	100.417
1504.0000	100.408
1503.0000	100.455
1502.0000	100.435
1501.0000	100.444
1500.0000	100.439
1499.0000	100.443
1498.0000	100.421
1497.0000	100.388
1496.0000	100.398
1495.0000	100.398
1494.0000	100.421
1493.0000	100.422
1492.0000	100.443
1491.0000	100.45
1490.0000	100.424
1489.0000	100.418
1488.0000	100.405
1487.0000	100.41
1486.0000	100.375
1485.0000	100.414
1484.0000	100.419
1483.0000	100.423
1482.0000	100.45
1481.0000	100.427
1480.0000	100.423
1479.0000	100.419
1478.0000	100.385
1477.0000	100.415
1476.0000	100.389
1475.0000	100.419
1474.0000	100.396
1473.0000	100.407
1472.0000	100.412
1471.0000	100.377
1470.0000	100.362
1469.0000	100.376
1468.0000	100.377
1467.0000	100.361
1466.0000	100.363
1465.0000	100.403
1464.0000	100.422
1463.0000	100.423
1462.0000	100.436
1461.0000	100.427
1460.0000	100.412
1459.0000	100.392
1458.0000	100.387
1457.0000	100.37
1456.0000	100.401
1455.0000	100.374
1454.0000	100.381
1453.0000	100.406
1452.0000	100.392
1451.0000	100.397
1450.0000	100.355
1449.0000	100.379
1448.0000	100.362
1447.0000	100.36
1446.0000	100.352
1445.0000	100.358
1444.0000	100.364
1443.0000	100.355
1442.0000	100.373
1441.0000	100.388
1440.0000	100.408
1439.0000	100.415
1438.0000	100.435
1437.0000	100.397
1436.0000	100.42
1435.0000	100.392
1434.0000	100.411
1433.0000	100.408
1432.0000	100.398
1431.0000	100.428
1430.0000	100.417
1429.0000	100.426
1428.0000	100.452
1427.0000	100.425
1426.0000	100.425
1425.0000	100.404
1424.0000	100.374
1423.0000	100.378
1422.0000	100.388
1421.0000	100.391
1420.0000	100.379
1419.0000	100.388
1418.0000	100.378
1417.0000	100.366
1416.0000	100.364
1415.0000	100.389
1414.0000	100.387
1413.0000	100.418
1412.0000	100.402
1411.0000	100.386
1410.0000	100.372
1409.0000	100.377
1408.0000	100.329
1407.0000	100.349
1406.0000	100.356
1405.0000	100.382
1404.0000	100.39
1403.0000	100.419
1402.0000	100.407
1401.0000	100.424
